#
# TAYLOR DOME st9810 TIMESCALE AND 
# Quaternary Isotope Laboratory 20-CM RESOLUTION DELTA 18-O DATA 
#
#  Data Description:
#
#  The delta 18O values were determined at the Quaternary Isotope Laboratory
#  (M. Stuiver, Box 351360, University of Washington, Seattle WA 98195, USA).
#  The time scale (st9810) is a combined timescale from geophysical
#  measurements, gas-correation with the GISP2 layer-counted 
#  chronology (central Greenland), and interpolation using gas and 
#  10-Be control points.  Details are given in Steig et al., 1999.
#
#  All of the data in this file are from samples bottled at the
#  University of New Hampshire.  Samples are "residue" from the UNH
#  automated melting system, used as a prep. system for ion 
#  chromatography measurements.  All ice was sampled at the National
#  Ice Core Laboratory.
# 
#  Reference:
#
#  Steig EJ, Hart CP, White JWC, Cunningham WL, Davis MD & Saltzman ES.
#  Changes in climate, ocean and ice sheet conditions in the Ross
#  Embayment at 6 ka. Annals of Glaciology 27, 305-310 (1998).   
#
#  Steig EJ, Morse DL, Waddington ED, Stuiver M, Grootes PM. Wisconsinan
#  and Holocene climate history from an ice core at Taylor Dome, western 
#  Ross Embayment, Antarctica. Geografiska Annaler 82A: 213-235 (2000).
#
# Depth	Age (ka)	del18O
# (top, m)	(st9810)	per mil
3.629	0.0107	-42.11
3.899	0.0129	-38.98
4.17	0.0152	-35.87
4.435	0.0173	-39.19
4.7	0.0195	999999
4.965	0.0217	-38.85
5.228	0.0238	-37.4
5.491	0.026	-43.19
5.752	0.0281	-41.86
6.013	0.0302	-41.79
6.272	0.0324	-39.49
6.531	0.0345	-37.57
6.788	0.0366	-37.31
7.045	0.0387	-38.46
7.3	0.0408	-41.85
7.555	0.0429	-38.86
7.808	0.0449	-36.64
8.061	0.047	-39.32
8.563	0.0511	-41.89
8.812	0.0531	-41.21
9.061	0.0552	-40.09
9.309	0.0574	-39
9.557	0.0598	-40.06
9.803	0.0621	-40.86
10.049	0.0644	-40.58
10.293	0.0668	-38.19
10.537	0.0691	-41.25
10.8	0.0716	-40.49
11.023	0.0737	-40.37
11.264	0.076	-41.15
11.505	0.0783	-40.56
11.746	0.0806	-39.98
11.95	0.0825	-38.22
12.225	0.0851	-38.54
12.463	0.0874	-36.33
12.71	0.0897	-40.6
12.937	0.0919	-40.9
13.173	0.0941	-40.72
13.39	0.0962	-40.23
13.642	0.0986	-39.28
13.875	0.1008	-42.24
14.108	0.103	-39.68
14.338	0.1052	-40.67
14.568	0.1074	-39.56
14.84	0.1102	-44.53
15.026	0.1121	-38.51
15.254	0.1146	-39.8
15.48	0.117	-43.51
15.706	0.1194	-41.14
15.932	0.1218	-36.48
16.17	0.1244	-39.29
16.38	0.1266	-41.38
16.604	0.129	-41.63
16.826	0.1314	-39.16
17.048	0.1338	-40.21
17.27	0.1362	-42.67
17.489	0.1385	-40.43
17.708	0.1408	999999
17.927	0.1432	-40.13
18.17	0.1458	-42.89
18.361	0.1478	-40.94
18.578	0.1502	-42.3
18.793	0.1525	-41.96
19.008	0.1548	-40.62
19.222	0.157	-42.59
19.436	0.1593	-41.7
19.65	0.1616	-40.78
19.864	0.1639	-42.21
20.075	0.1662	-40.51
20.286	0.1685	-41.56
20.52	0.1713	-40.3
20.706	0.1735	-40.3
20.915	0.176	-39.47
21.124	0.1785	-42.63
21.332	0.181	-40.74
21.54	0.1834	-39.63
21.74	0.1858	-39.79
21.954	0.1884	-41.54
22.17	0.1909	-43.61
22.366	0.1933	-40.25
22.57	0.1957	-41.1
22.774	0.1981	-41.23
22.978	0.2005	-41.82
23.17	0.2028	-37.44
23.384	0.2054	-36.85
23.595	0.2079	-40.66
23.788	0.2102	-38.78
23.989	0.2126	-39.57
24.17	0.2147	-40.6
24.391	0.2174	999999
24.59	0.2197	-39.75
24.789	0.2221	-40.61
24.988	0.2245	-41.11
25.17	0.2266	-39.34
25.382	0.2291	-40.12
25.579	0.2315	-39.33
25.775	0.2339	-39.93
25.971	0.2364	-41.81
26.17	0.239	-40.6
26.363	0.2414	-40.6
26.557	0.2439	-40.1
26.751	0.2464	-40
26.945	0.2489	-42.81
27.17	0.2518	-41.04
27.334	0.254	-39.82
27.527	0.2564	-39.99
27.718	0.2589	-39.17
27.909	0.2614	-38.58
28.1	0.2638	-41.01
28.291	0.2663	-38.18
28.481	0.2687	-36.83
28.671	0.2712	-38.37
28.86	0.2736	-40.45
29.049	0.2761	-40.12
29.238	0.2785	-38.67
29.427	0.2809	-39.62
29.614	0.2834	-39.12
29.8	0.2858	-38.38
29.986	0.2882	-38.47
30.172	0.2906	-40.75
30.358	0.293	-42.74
30.541	0.2953	-42.79
30.727	0.2977	-41.21
30.911	0.3001	-41.02
31.095	0.3025	-38.94
31.281	0.3049	-39.47
31.465	0.3074	-39.55
31.648	0.3099	-42.55
31.815	0.3123	-42.74
32.014	0.315	999999
32.17	0.3172	-43.07
32.378	0.3201	-40.88
32.559	0.3226	-39.88
32.74	0.3251	-38.85
32.937	0.3278	-38.77
33.101	0.3301	-38.17
33.28	0.3325	-39.37
33.459	0.335	-40.39
33.638	0.3375	-43.53
33.817	0.34	-42.8
33.995	0.3424	-41.43
34.17	0.3449	-40.45
34.351	0.3474	-39.01
34.528	0.3498	-39.6
34.705	0.3523	-42.21
34.882	0.3547	-42.77
35.059	0.3572	-44.24
35.255	0.3599	-42.35
35.411	0.3621	-40.26
35.587	0.3645	-40.47
35.763	0.3669	-40.56
35.938	0.3694	-42.65
36.113	0.3718	-42.73
36.288	0.3742	-40.4
36.463	0.3766	-39.1
36.636	0.379	-39.61
36.809	0.3814	-41.41
36.982	0.384	-42.95
37.17	0.3868	-41.68
37.345	0.3893	-42.63
37.498	0.3916	-42.43
37.67	0.3941	-41.02
37.841	0.3966	-39.05
38.012	0.3992	-38.88
38.17	0.4015	-39.94
38.354	0.4042	-41.72
38.548	0.4071	-39.65
38.694	0.4092	-39.84
38.864	0.4117	-40.6
39.033	0.4142	-40.59
39.202	0.4167	-37.88
39.371	0.4192	-37.91
39.54	0.4217	-40.32
39.708	0.4242	-41.23
39.876	0.4266	-41.63
40.07	0.4295	-40.34
40.211	0.4316	-40.12
40.378	0.4341	-39.24
40.545	0.4365	-39.36
40.712	0.439	-38.85
40.878	0.4414	-39.67
41.044	0.4439	-40.78
41.21	0.4463	-42.73
41.541	0.4512	-39.82
41.706	0.4536	-41.32
41.871	0.4561	-39.67
42.035	0.4585	999999
42.21	0.4611	-39.97
42.363	0.4634	-39.03
42.527	0.4659	-38.73
42.691	0.4684	-38.18
42.855	0.471	-39.51
43.019	0.4735	-39.89
43.182	0.4761	999999
43.344	0.4786	-39.21
43.506	0.4811	-38.32
43.668	0.4836	999999
43.83	0.4861	-42.37
43.991	0.4886	-40.21
44.152	0.4911	-39.2
44.313	0.4936	-39.02
44.473	0.4961	-41.13
44.65	0.4988	-43.85
44.793	0.501	-42.32
44.953	0.5035	-40.39
45.113	0.506	-39.48
45.272	0.5085	-40.04
45.431	0.5109	-39.98
45.59	0.5134	-40.32
45.749	0.5159	-39.21
45.908	0.5183	-39.64
46.067	0.5208	-39.19
46.21	0.523	-39.22
46.384	0.5257	-40.31
46.542	0.5282	-40.06
46.7	0.5306	-39.63
46.858	0.5331	-37.94
47.016	0.5355	-38.05
47.173	0.538	-37.8
47.33	0.5404	-40.23
47.487	0.5428	-41.05
47.644	0.5453	-38.18
47.8	0.5477	-38.21
47.956	0.5502	-40.54
48.135	0.5531	-39.06
48.268	0.5553	-37.91
48.423	0.5578	-38.2
48.578	0.5603	-39.28
48.733	0.5628	999999
48.888	0.5653	-39
49.042	0.5678	-39.99
49.21	0.5706	-40
49.35	0.5728	-40.33
49.503	0.5753	-40.17
49.656	0.5778	-40.89
49.809	0.5803	-44.01
49.962	0.5828	-44.15
50.115	0.5853	999999
50.268	0.5878	-39.88
50.421	0.5903	-42.34
50.574	0.5927	-42.97
50.727	0.5952	-41.87
50.879	0.5977	-41.01
51.031	0.6002	-40.77
51.183	0.6026	-42.59
51.335	0.6051	-42.03
51.486	0.6076	-41.09
51.637	0.61	-40.88
51.788	0.6125	-40.73
51.939	0.6149	-40.29
52.09	0.6174	-40.74
52.241	0.6198	999999
52.42	0.6227	-43.47
52.542	0.6247	-42
52.692	0.6272	-38.11
52.842	0.6296	-38.54
52.992	0.632	-39.53
53.142	0.6345	-41.37
53.291	0.6369	-40.88
53.44	0.6394	-41.66
53.589	0.6419	-37.82
53.737	0.6444	-38.82
53.885	0.6469	-39.37
54.033	0.6494	-41.4
54.181	0.6519	-46.32
54.329	0.6544	-46.71
54.477	0.6569	-40.39
54.625	0.6594	999999
54.773	0.6619	-37.39
54.921	0.6645	-37.86
55.069	0.667	-38.46
55.216	0.6694	-38.46
55.363	0.6719	-38.49
55.51	0.6744	-39.12
55.656	0.6769	-38.94
55.802	0.6794	-38.23
55.948	0.6818	-38.79
56.094	0.6843	-40.2
56.24	0.6868	-42.13
56.386	0.6893	-39.69
56.532	0.6917	-40.66
56.678	0.6942	-41.36
56.824	0.6967	-40.14
56.969	0.6991	-39.17
57.114	0.7016	-40.65
57.259	0.7041	-42.95
57.404	0.7065	-41.61
57.548	0.709	-41.28
57.692	0.7114	-41.88
57.836	0.7138	-39.98
57.98	0.7163	-39.37
58.124	0.7187	-39.72
58.268	0.7211	-40.28
58.412	0.7236	-40.51
58.556	0.726	-39.98
58.7	0.7285	-39.02
58.843	0.7309	-38.39
58.986	0.7334	-36.82
59.129	0.7359	-37.21
59.272	0.7384	-39.91
59.415	0.7409	-40.61
59.59	0.7439	-40.54
59.72	0.7462	-40.1
59.843	0.7484	-39.8
59.985	0.7509	-40.47
60.127	0.7533	-40.93
60.269	0.7558	-39.04
60.411	0.7583	-39.17
60.552	0.7608	-39.11
60.693	0.7633	-40.74
60.834	0.7657	-42.23
60.975	0.7682	-41.16
61.116	0.7707	-41.1
61.257	0.7731	999999
61.398	0.7756	-39.21
61.539	0.7781	-38.32
61.68	0.7805	999999
61.82	0.783	-42.23
61.96	0.7854	-42.72
62.1	0.7879	-42.17
62.24	0.7903	-40.38
62.38	0.7928	-39.79
62.52	0.7952	999999
62.66	0.7977	-39.38
62.8	0.8002	-41.02
62.939	0.8026	-41.8
63.078	0.805	-40.7
63.217	0.8075	-38.87
63.356	0.8099	-39.95
63.495	0.8123	-41.02
63.634	0.8148	-41.28
63.773	0.8172	-41.7
63.912	0.8196	-40.48
64.051	0.8221	-39.68
64.189	0.8245	-40.37
64.35	0.8273	999999
64.465	0.8293	-41.67
64.603	0.8318	-40.44
64.741	0.8344	-40.35
64.878	0.8369	-41.23
65.015	0.8393	-41.39
65.152	0.8418	-39.97
65.292	0.8444	-40.45
65.426	0.8468	-41.6
65.563	0.8493	-41.1
65.7	0.8518	-39.85
65.837	0.8543	-40.04
65.973	0.8568	-41.49
66.109	0.8593	-40.43
66.245	0.8617	-40.93
66.381	0.8642	-40.86
66.517	0.8667	-40.42
66.653	0.8692	-41.06
66.789	0.8717	-40.77
66.925	0.8741	-40.87
67.06	0.8766	-42.15
67.195	0.879	-43.34
67.33	0.8815	-42.43
67.465	0.884	-40.41
67.6	0.8864	-40.1
67.735	0.8889	-41.36
67.87	0.8913	-41.75
68.005	0.8938	-41.01
68.14	0.8963	-40.65
68.274	0.8987	-40.4
68.408	0.9011	-41.57
68.542	0.9036	-42.01
68.676	0.906	-43.12
68.81	0.9085	-42.8
68.944	0.9109	-40.44
69.09	0.9135	-39.65
69.212	0.9158	-40.05
69.346	0.9182	-39.23
69.479	0.9206	-39.17
69.612	0.9231	-39.59
69.745	0.9255	-40.06
69.878	0.9279	-39.8
70.011	0.9303	-39.54
70.144	0.9328	-39.57
70.277	0.9353	-38.38
70.41	0.9378	-40.32
70.543	0.9403	-40.37
70.675	0.9428	-40.54
70.807	0.9452	-40.91
70.939	0.9477	-39.06
71.071	0.9502	-38.55
71.203	0.9527	-39.38
71.335	0.9551	-39.44
71.467	0.9576	-39.9
71.599	0.9601	999999
71.731	0.9625	-43.77
71.863	0.965	-43.74
71.995	0.9675	999999
72.127	0.97	-41.57
72.259	0.9724	-41.03
72.391	0.9749	-39.27
72.523	0.9774	-39.74
72.654	0.9798	-40.43
72.785	0.9823	-40.56
72.916	0.9847	999999
73.047	0.9872	-41.09
73.178	0.9896	999999
73.309	0.9921	-39.78
73.44	0.9945	-39.85
73.57	0.997	-39.34
73.7	0.9994	-38.03
73.83	1.0018	999999
73.96	1.0043	-37.76
74.09	1.0067	-39.11
74.22	1.0091	-38.39
74.35	1.0116	-40.64
74.48	1.014	-42.12
74.61	1.0164	-40.48
74.74	1.0189	-37.87
74.87	1.0213	-37.9
75	1.0237	-39.46
75.258	1.0286	-40.16
75.387	1.031	-38.56
75.516	1.0334	999999
75.645	1.0359	-40.98
75.774	1.0384	-39.61
75.903	1.0408	-39.19
76.032	1.0433	-39.53
76.161	1.0458	-38.84
76.29	1.0483	-41.22
76.419	1.0508	-42.75
76.548	1.0532	-37.54
76.677	1.0557	-39.91
76.806	1.0582	-39.62
76.934	1.0607	-40.33
77.062	1.0631	-40.89
77.19	1.0656	-41.36
77.318	1.0681	-41.8
77.446	1.0705	-40.43
77.574	1.073	999999
77.702	1.0754	-40.63
77.83	1.0779	-38.77
77.958	1.0804	-38.24
78.086	1.0828	-39.77
78.213	1.0853	-39.7
78.34	1.0877	-38.53
78.467	1.0902	-38.55
78.594	1.0926	-39.48
78.721	1.095	-40.49
78.848	1.0975	-41.64
78.975	1.0999	-40.88
79.102	1.1024	999999
79.229	1.1048	-41.74
79.356	1.1073	-39.91
79.483	1.1097	-40.4
79.61	1.1121	-41.05
79.736	1.1146	-39.82
79.862	1.117	-41.04
79.988	1.1194	-40.22
80.114	1.1218	999999
80.24	1.1243	-39.6
80.366	1.1267	-39.45
80.492	1.1291	-38.97
80.618	1.1315	-38.79
80.744	1.134	-40.73
80.87	1.1364	-38.34
80.996	1.1388	-40.08
81.121	1.1413	-39.77
81.246	1.1437	-41.07
81.371	1.1462	-40.84
81.496	1.1487	-40.65
81.621	1.1511	-40.64
81.746	1.1536	-40.96
81.871	1.156	-40.05
81.996	1.1585	-39
82.121	1.161	-39.6
82.246	1.1634	-40.81
82.371	1.1659	-41.07
82.496	1.1684	-41.08
82.62	1.1708	-40.29
82.744	1.1733	-41.42
82.868	1.1757	999999
82.992	1.1781	-40.33
83.116	1.1806	-39.04
83.24	1.183	999999
83.488	1.1879	-42.35
83.612	1.1904	-41.45
83.736	1.1928	-39.89
83.86	1.1953	-37.46
83.984	1.1977	-36.25
84.108	1.2002	-36.37
84.232	1.2026	-37.22
84.355	1.205	-38.9
84.478	1.2074	-40.07
84.59	1.2097	-40.67
84.724	1.2123	-40.16
84.847	1.2147	-40.7
84.97	1.2171	-40.79
85.12	1.2201	-41.61
85.216	1.222	-40.75
85.339	1.2244	-40.4
85.462	1.2268	-43.2
85.585	1.2293	-43.17
85.708	1.2317	-41
85.831	1.2341	-40.86
85.954	1.2365	-39.32
86.077	1.239	-39.46
86.2	1.2414	-37.29
86.322	1.2438	999999
86.49	1.2471	-35.99
86.57	1.2487	-37.06
86.688	1.2511	-38.02
86.81	1.2536	-40.33
86.932	1.2561	-43.17
87.054	1.2585	-43.2
87.176	1.261	-39.43
87.298	1.2635	-39.77
87.42	1.266	-40.04
87.542	1.2685	-39.44
87.664	1.2709	-40.42
87.786	1.2734	-39.54
87.908	1.2759	-40.54
88.03	1.2784	-40.87
88.128	1.2804	-40.63
88.273	1.2833	-40.54
88.394	1.2858	-40.51
88.515	1.2882	-40.61
88.636	1.2907	-40.12
88.757	1.2932	-39.33
88.878	1.2956	-38.23
88.999	1.2981	-39.38
89.12	1.3005	-39.61
89.241	1.303	-38.87
89.362	1.3054	-37.71
89.483	1.3079	-38.7
89.604	1.3104	-39.64
89.725	1.3128	-39.7
89.846	1.3153	-40.26
89.967	1.3177	999999
90.12	1.3208	-41.91
90.209	1.3227	-41.19
90.329	1.3251	-38.83
90.449	1.3275	-38.7
90.569	1.33	-40.07
90.689	1.3324	-39.26
90.809	1.3348	-38.8
90.929	1.3373	-38.9
91.049	1.3397	-39.34
91.169	1.3422	-39.61
91.289	1.3446	-40.83
91.409	1.347	-40.01
91.529	1.3495	-38.98
91.649	1.3519	-39.2
91.75	1.354	-41.39
91.889	1.3568	-41.43
92.009	1.3592	-41.04
92.11	1.3613	-41.39
92.248	1.3642	-40.06
92.367	1.3666	-38.69
92.486	1.3691	-39.72
92.605	1.3716	-39.14
92.724	1.374	-38.89
92.843	1.3765	999999
92.962	1.379	-40.09
93.081	1.3814	-41.03
93.2	1.3839	-41.92
93.319	1.3864	-39.78
93.438	1.3888	-38.02
93.557	1.3913	-38.27
93.676	1.3938	-38.14
93.795	1.3962	-38.15
93.914	1.3987	-40.34
94.033	1.4012	-44.98
94.16	1.4038	-42.68
94.27	1.4061	-40.06
94.41	1.409	-39.23
94.506	1.411	-39.01
94.624	1.4134	999999
94.742	1.4159	-41.26
94.86	1.4183	-40.5
94.978	1.4208	-40.39
95.12	1.4237	-39.37
95.214	1.4256	-39.59
95.332	1.4281	-41.18
95.45	1.4305	-40.94
95.568	1.433	-39.59
95.686	1.4354	-38.47
95.8	1.4378	-39.25
95.922	1.4403	-40.75
96.04	1.4428	-41.36
96.158	1.4452	-40.15
96.276	1.4477	-39.74
96.394	1.4501	-39.67
96.512	1.4526	-38.92
96.63	1.455	-39.4
96.747	1.4574	-39.06
96.875	1.4601	-38.05
96.981	1.4623	-37.32
97.098	1.4647	-36.99
97.215	1.4671	-38.83
97.332	1.4696	-41.44
97.449	1.472	-41.4
97.566	1.4744	-40.09
97.683	1.4769	999999
97.8	1.4794	-40.52
97.9	1.4815	-40.04
98.034	1.4844	-39.83
98.151	1.4869	-39.66
98.268	1.4893	-38.77
98.385	1.4918	-37.97
98.502	1.4943	999999
98.59	1.4962	-39
98.736	1.4993	-38.73
98.853	1.5018	-39.95
98.97	1.5043	-39.58
99.08	1.5066	-39.31
99.204	1.5093	-37.77
99.321	1.5118	999999
99.438	1.5143	-39.69
99.555	1.5168	-40.2
99.672	1.5193	-39.68
99.788	1.5217	-37.59
99.904	1.5242	-38.14
100.02	1.5267	-39.23
100.12	1.5288	-41.54
100.23	1.5311	-41.01
100.37	1.5341	-40.18
100.48	1.5365	-40.6
100.62	1.5394	-38.88
100.72	1.5415	-39.29
100.83	1.544	-39.75
100.95	1.5464	-38.73
101.06	1.5489	-40.9
101.18	1.5514	-41.81
101.3	1.5538	-41.74
101.41	1.5563	-43.85
101.53	1.5588	-41.07
101.64	1.5613	-40.69
101.76	1.5637	-40.25
101.88	1.5662	-39.64
102	1.5689	-40
102.11	1.5711	-39.65
102.22	1.5735	-37.86
102.34	1.576	-38.25
102.45	1.5784	-39.92
102.57	1.5809	-38.38
102.68	1.5833	-40.17
102.8	1.5858	-40.65
102.91	1.5882	-40.16
103.03	1.5907	-40.7
103.12	1.5927	-39.98
103.26	1.5956	-40.8
103.37	1.5981	-39.29
103.49	1.6006	999999
103.6	1.6031	-39.1
103.72	1.6055	-39.37
103.95	1.6105	-41.36
104.06	1.613	-40.22
104.18	1.6155	-43.28
104.29	1.6179	-43.04
104.41	1.6204	-40.37
104.52	1.6229	-39.6
104.64	1.6254	-39.42
104.75	1.6279	-38.9
104.86	1.6303	-40.13
104.98	1.6328	-40.48
105.12	1.6358	999999
105.21	1.6377	-39.49
105.32	1.6401	-40.71
105.43	1.6426	-40.93
105.55	1.6451	-40.18
105.66	1.6475	-40.44
105.78	1.65	-40.68
105.89	1.6524	-39.2
106	1.6549	-39.47
106.12	1.6574	999999
106.23	1.6598	-39.78
106.37	1.6628	999999
106.57	1.6672	-39.18
106.69	1.6696	-39.04
106.8	1.6721	-39.83
106.92	1.6745	-39.83
107.03	1.677	-41.31
107.12	1.6789	-42.62
107.26	1.6819	-39.54
107.37	1.6844	-39.88
107.49	1.6868	-41.11
107.6	1.6893	-41.27
107.71	1.6917	-41.22
107.83	1.6942	-41.5
107.94	1.6967	-40.1
108.06	1.6991	-40.62
108.17	1.7016	-42.22
108.28	1.704	999999
108.4	1.7064	-41.53
108.51	1.7089	-40.52
108.62	1.7113	-42.05
108.74	1.7138	-42.44
108.85	1.7163	-40.64
108.96	1.7188	-38.63
109.07	1.7213	-40.63
109.19	1.7238	-41.41
109.28	1.7259	-40.03
109.41	1.7288	-39.12
109.53	1.7313	999999
109.64	1.7339	-40.96
109.75	1.7364	-40.99
109.87	1.7389	-39.89
109.98	1.7414	-40.09
110.12	1.7445	-39.89
110.21	1.7466	999999
110.32	1.7489	-40.66
110.43	1.7514	-38.03
110.54	1.7539	999999
110.66	1.7564	-38.49
110.77	1.7589	-40.2
110.88	1.7614	-41.31
111	1.7639	-41.49
111.12	1.7667	-39.96
111.22	1.7689	999999
111.33	1.7714	-41.57
111.44	1.7739	-41.72
111.56	1.7763	-40.28
111.67	1.7788	-39.92
111.78	1.7813	-38.31
111.89	1.7838	-38.71
111.99	1.7859	-40.51
112.12	1.7888	-41.46
112.23	1.7912	-41.56
112.34	1.7937	-40.08
112.45	1.7962	999999
112.56	1.7987	-39.79
112.68	1.8012	-40.39
112.79	1.8037	-41.02
112.9	1.8061	-39.84
113.01	1.8086	-39.47
113.12	1.811	-38.59
113.24	1.8136	-38.51
113.35	1.8161	999999
113.46	1.8186	-41.3
113.57	1.821	999999
113.68	1.8235	-42.61
113.8	1.826	-40.73
113.91	1.8285	-39.61
114.02	1.831	-39.83
114.12	1.8332	-39.73
114.24	1.836	999999
114.36	1.8385	-39.66
114.47	1.841	-39.93
114.58	1.8435	-39.91
114.69	1.8461	-40.12
114.8	1.8486	-41.1
114.92	1.8511	-40.42
115.03	1.8536	-39.67
115.12	1.8557	-40.38
115.21	1.8579	-41.37
115.36	1.8611	999999
115.47	1.8636	-40.51
115.58	1.8661	-38.76
115.69	1.8686	-38.56
115.8	1.8711	-38.73
115.92	1.8736	-39.24
116.03	1.8761	-39.7
116.12	1.8782	-39.87
116.25	1.8811	-41.8
116.36	1.8836	999999
116.47	1.8861	-42.54
116.58	1.8886	-39.06
116.69	1.8911	-37.57
116.8	1.8936	-38.35
116.91	1.8961	-39.94
117.03	1.8986	-41.44
117.12	1.9008	-41.13
117.25	1.9036	999999
117.36	1.9061	-40.99
117.47	1.9086	-40.46
117.58	1.9111	-39.04
117.69	1.9136	-37.06
117.8	1.9161	-36.55
117.91	1.9186	-37.25
118.02	1.9212	-39.8
118.12	1.9233	-41.19
118.25	1.9262	-39.11
118.36	1.9287	-40.61
118.47	1.9312	-41.3
118.58	1.9337	-41.12
118.69	1.9362	-41.27
118.8	1.9387	-40.09
118.91	1.9412	-38.68
119.02	1.9437	-40.33
119.12	1.9458	-39.99
119.25	1.9487	-39.1
119.36	1.9512	-39.51
119.49	1.9542	-38.79
119.58	1.9561	-38.89
119.69	1.9586	-39.05
119.8	1.9611	-38.26
119.91	1.9636	-38.43
120.02	1.9662	-40.5
120.12	1.9685	-39.53
120.21	1.9707	999999
120.35	1.9737	-40.06
120.46	1.9762	-39.61
120.57	1.9787	-41.37
120.68	1.9813	-40.28
120.79	1.9838	-38.81
120.9	1.9863	-38.86
121.01	1.9888	-39.09
121.12	1.9914	-39.14
121.23	1.9938	-40.69
121.34	1.9964	-40.66
121.45	1.9989	-40.14
121.56	2.0014	-39.32
121.67	2.0039	-38.66
121.76	2.0061	-39.84
121.89	2.009	-37.47
122	2.0115	-38.49
122.12	2.0143	-38.46
122.22	2.0165	-39.43
122.33	2.019	-38.39
122.44	2.0215	-39.61
122.55	2.0241	999999
122.66	2.0266	-40.37
122.77	2.0291	-41.64
122.88	2.0316	-41.57
122.99	2.0341	-38.76
123.12	2.0372	-39.53
123.21	2.0392	-42.21
123.32	2.0417	-42.18
123.44	2.0445	-41.52
123.54	2.0467	-40.43
123.65	2.0492	-40.76
123.79	2.0525	-41.69
123.87	2.0543	-41.46
123.98	2.0568	-40.29
124.09	2.0593	-39.64
124.2	2.0618	-38.09
124.31	2.0643	-36.59
124.42	2.0669	-39.23
124.53	2.0694	-40.67
124.64	2.0719	-41.95
124.75	2.0744	-42.49
124.86	2.0769	-43.31
124.97	2.0794	-41.44
125.08	2.082	999999
125.22	2.0853	-38.77
125.3	2.0871	-39.71
125.41	2.0897	-40.94
125.51	2.0922	-39.44
125.62	2.0948	-39.77
125.73	2.0974	-39.93
125.84	2.1	-40.69
125.95	2.1025	-39.37
126.06	2.1051	999999
126.17	2.1077	-39.73
126.28	2.1103	-38.29
126.39	2.1128	-39.38
126.5	2.1154	-42.17
126.61	2.118	-40.95
126.71	2.1206	999999
126.82	2.1232	-40.45
126.93	2.1257	-40.09
127.04	2.1283	-39.26
127.12	2.1302	-40.43
127.26	2.1334	-38.11
127.36	2.136	999999
127.47	2.1385	-40.37
127.58	2.1411	999999
127.69	2.1436	-43.66
127.8	2.1462	-41.2
127.9	2.1487	999999
128.04	2.1518	-36.83
128.12	2.1538	-37.92
128.23	2.1564	999999
128.34	2.1589	-39.78
128.45	2.1615	-39.3
128.55	2.1641	999999
128.66	2.1666	-40.85
128.77	2.1692	999999
128.99	2.1743	-41.32
129.12	2.1775	999999
129.2	2.1794	-37.65
129.31	2.1819	999999
129.42	2.1845	-38.19
129.52	2.187	-38.86
129.63	2.1896	999999
129.72	2.1916	-40.45
129.85	2.1947	999999
129.96	2.1972	-39.04
130.07	2.1998	999999
130.28	2.2049	-39.05
130.39	2.2075	-40.09
130.5	2.21	999999
130.6	2.2126	-39.92
130.71	2.2151	-40.29
130.82	2.2177	999999
130.93	2.2203	-41.19
131.04	2.2228	-40.7
131.12	2.2249	-38.87
131.25	2.228	-39.65
131.36	2.2305	-39.55
131.46	2.2331	-40.05
131.57	2.2357	-39.26
131.68	2.2382	-38.84
131.79	2.2408	999999
132.21	2.251	-39.18
132.32	2.2536	-40.88
132.43	2.2562	-42.11
132.53	2.2587	-42.13
132.64	2.2613	-40.22
132.75	2.2639	-41.33
132.85	2.2664	-40.15
132.96	2.269	-41.4
133.07	2.2715	-40.49
133.18	2.2741	-39.59
133.28	2.2767	-39.22
133.39	2.2792	-40.11
133.5	2.2818	999999
133.6	2.2844	-41
133.71	2.2869	999999
133.82	2.2895	-41.05
133.93	2.2921	-39.26
134.03	2.2946	999999
134.12	2.2967	-39.77
134.35	2.3023	-41.9
134.46	2.3048	-39.4
134.55	2.307	-39.51
134.67	2.3099	999999
134.78	2.3124	-39.79
134.99	2.3175	-40.83
135.12	2.3207	-42.27
135.22	2.323	-42.19
135.31	2.3251	999999
135.41	2.3277	-41.02
135.52	2.3302	-40.51
135.62	2.3328	999999
135.73	2.3353	-40.23
135.84	2.3378	-39.36
135.94	2.3404	999999
136.05	2.3429	-40.26
136.15	2.3455	-40.01
136.26	2.348	999999
136.37	2.3506	-40.99
136.47	2.3532	-40.6
136.58	2.3557	999999
136.79	2.3609	-43.03
136.9	2.3635	999999
137	2.3661	-38.96
137.12	2.369	-38.41
137.21	2.3713	999999
137.32	2.3739	-41.02
137.43	2.3764	999999
137.64	2.3816	-39.99
137.74	2.3842	999999
137.96	2.3894	-40.71
138.06	2.392	-39.45
138.17	2.3945	999999
138.27	2.3971	-39.68
138.38	2.3997	999999
138.8	2.41	-40.61
138.91	2.4126	-39.72
139.01	2.4151	999999
139.12	2.4178	-39.86
139.22	2.4203	-41.69
139.33	2.4228	-41.11
139.43	2.4254	-39.5
139.54	2.428	-39.34
139.64	2.4305	999999
139.75	2.4331	-39.59
139.85	2.4356	999999
140.06	2.4408	-40.61
140.17	2.4433	-40.56
140.27	2.4459	-39.56
140.36	2.448	-38.74
140.48	2.451	-38.38
140.59	2.4536	-38.88
140.69	2.4561	-39.33
140.8	2.4587	-39.11
140.9	2.4613	-40.07
141.01	2.4638	-41.11
141.11	2.4664	999999
141.22	2.469	-42.55
141.32	2.4715	-42.28
141.43	2.474	-39.78
141.53	2.4766	-38.27
141.63	2.4791	-39.64
141.74	2.4816	-40.66
141.84	2.4842	-40.22
141.95	2.4868	999999
142.05	2.4894	-42.83
142.15	2.492	-42.15
142.26	2.4946	-41.87
142.36	2.4971	-41.47
142.46	2.4997	-39.21
142.57	2.5023	-39.9
142.67	2.5049	-41.93
142.78	2.5075	-42.12
142.88	2.5101	-39.28
142.99	2.5127	-38.26
143.09	2.5153	-39.54
143.19	2.5179	-39.82
143.3	2.5205	999999
143.4	2.5231	-41.44
143.51	2.5256	-41.93
143.61	2.5282	-41.62
143.71	2.5308	-42.11
143.82	2.5334	-41.53
143.92	2.536	-41.04
144.02	2.5386	-39.5
144.13	2.5412	-39.24
144.22	2.5435	-39.95
144.34	2.5464	-40.25
144.44	2.549	-39.28
144.54	2.5516	-40.12
144.65	2.5541	-40.59
144.75	2.5567	-39.86
144.86	2.5593	-38.7
144.96	2.5619	-40.67
145.07	2.5645	-40.43
145.16	2.567	-39.65
145.26	2.5695	999999
145.37	2.572	-39.75
145.46	2.5745	999999
145.57	2.577	-40.75
145.66	2.5795	-41.99
145.76	2.5819	-40.28
145.87	2.5844	-38.45
145.96	2.5869	-38.54
146.07	2.5894	-37.78
146.16	2.5919	-39.03
146.26	2.5944	-40.17
146.38	2.5974	-38.45
146.46	2.5994	-39.27
146.57	2.6019	-37.74
146.66	2.6044	-37.88
146.76	2.6069	-37.8
146.87	2.6093	-39.36
146.96	2.6118	-41.33
147.07	2.6143	-39.7
147.16	2.6168	-38.76
147.26	2.6193	-37.5
147.37	2.6218	-38.9
147.46	2.6243	-41.88
147.57	2.6269	-42.12
147.66	2.6294	999999
147.76	2.632	-40.56
147.87	2.6345	-38.59
147.96	2.637	-34.36
148.07	2.6396	-38.81
148.16	2.6421	-40.15
148.26	2.6447	999999
148.37	2.6472	-39.81
148.46	2.6497	-40.59
148.57	2.6523	-41.72
148.66	2.6548	-42.13
148.76	2.6573	-41.75
148.87	2.6599	-40.93
148.96	2.6624	-39.88
149.07	2.665	-40.57
149.16	2.6675	999999
149.26	2.67	-41.93
149.37	2.6726	-39.96
149.46	2.6751	-39.38
149.57	2.6776	-39.08
149.66	2.6802	-37.93
149.76	2.6827	-37.8
149.87	2.6853	-39.36
149.96	2.6878	-39.05
150.07	2.6903	-39.52
150.16	2.6929	-40.33
150.24	2.6947	999999
150.33	2.6971	-42.44
150.46	2.7005	-41.25
150.57	2.703	-41.41
150.66	2.7056	999999
150.76	2.7081	-42.86
150.87	2.7106	-40.47
150.96	2.7132	999999
151.07	2.7157	-40.98
151.16	2.7183	-41.07
151.26	2.7208	-41.09
151.37	2.7233	-39.21
151.46	2.7259	-38.34
151.57	2.7284	-40.51
151.69	2.7316	-39.68
151.76	2.7335	-39.6
151.87	2.736	-40.73
151.96	2.7386	999999
152.09	2.7417	-39.11
152.16	2.7436	-38.94
152.26	2.7462	-40.1
152.37	2.7487	-41.55
152.46	2.7512	-39.29
152.57	2.7538	-37.38
152.66	2.7563	-37
152.76	2.7589	-36.99
152.87	2.7614	-37.59
152.96	2.764	-37.61
153.07	2.7666	-38.29
153.16	2.7692	-40.77
153.26	2.7718	-39.81
153.37	2.7743	-39
153.46	2.7769	999999
153.57	2.7795	-41.08
153.66	2.7821	-40.89
153.76	2.7847	-41.45
153.87	2.7873	-41.77
153.96	2.7899	-41.33
154.07	2.7925	-39.32
154.16	2.7951	-40.19
154.24	2.797	-40.84
154.37	2.8002	-39.28
154.46	2.8028	-38.44
154.57	2.8054	-39.19
154.66	2.808	-39.02
154.76	2.8106	-37.41
154.87	2.8132	-37.4
154.96	2.8158	999999
155.07	2.8184	-39.25
155.16	2.8209	-39.26
155.24	2.823	-39.92
155.35	2.8257	-39.6
155.46	2.8287	-39.56
155.57	2.8313	-39.9
155.66	2.8339	-38.53
155.76	2.8365	-37.8
155.96	2.8417	-40.66
156.07	2.8443	-41.33
156.16	2.8468	999999
156.24	2.8487	-41.02
156.37	2.852	-40.1
156.46	2.8546	-40.24
156.57	2.8572	-41.38
156.66	2.8598	999999
156.76	2.8624	-37.18
156.87	2.865	-37.81
156.96	2.8676	-39.05
157.07	2.8701	-41.65
157.16	2.8727	-41.27
157.29	2.8761	999999
157.37	2.8779	-40.43
157.46	2.8805	-41.49
157.57	2.8831	-41.58
157.66	2.8857	-41.06
157.76	2.8883	-39.23
157.87	2.8909	-37.81
157.96	2.8934	-39.62
158.07	2.896	-40.47
158.16	2.8986	999999
158.26	2.9012	-39.28
158.37	2.9038	-40.38
158.46	2.9064	-39.8
158.57	2.9091	-38.92
158.66	2.9117	-40.38
158.76	2.9144	-40.93
158.87	2.917	-39.01
158.96	2.9196	-39.06
159.07	2.9223	-38.71
159.16	2.9249	-38.53
159.24	2.9269	-39.72
159.37	2.9302	-39.74
159.46	2.9329	-39.18
159.57	2.9355	-40.19
159.66	2.938	-39.18
159.76	2.9408	999999
159.87	2.9434	-41.02
159.96	2.9461	-41.24
160.07	2.9487	-42.46
160.14	2.9507	-41.94
160.23	2.9531	-39.04
160.37	2.9567	-39.32
160.46	2.9593	-39.45
160.57	2.9619	-39.62
160.66	2.9646	-40.8
160.76	2.9672	-40.01
160.87	2.9699	-37.92
160.96	2.9725	-38.84
161.07	2.9752	-39.15
161.14	2.9771	-40.01
161.25	2.9801	-41.18
161.37	2.9831	-41.07
161.46	2.9857	-38.94
161.57	2.9884	-38.5
161.66	2.991	-39.76
161.76	2.9937	-39.07
161.87	2.9963	999999
161.96	2.999	-35.44
162.05	3.0012	-36.17
162.14	3.0036	-38.19
162.26	3.0069	-41.54
162.37	3.0095	-42.25
162.46	3.0122	-42.19
162.57	3.0148	-41.37
162.66	3.0175	-39.42
162.76	3.0201	-39.68
162.87	3.0228	-40.51
162.96	3.0254	-38.02
163.07	3.028	-38.09
163.14	3.03	-38.84
163.26	3.0333	-40.4
163.37	3.036	-39.55
163.46	3.0386	-38.62
163.57	3.0413	-38.1
163.66	3.0439	-40.26
163.76	3.0465	-41.36
163.87	3.0492	-39.73
163.95	3.0514	-38.4
164.07	3.0545	-38.51
164.16	3.0572	-38.56
164.26	3.0599	-38.75
164.37	3.0626	-37.75
164.46	3.0653	-38.32
164.57	3.068	-38.52
164.66	3.0707	-40.52
164.76	3.0733	-42.02
164.87	3.076	-39.73
164.96	3.0787	-37.94
165.07	3.0815	999999
165.12	3.0829	-39.03
165.26	3.0868	-40.04
165.37	3.0895	-39.06
165.46	3.0921	-39.96
165.57	3.0948	-39.46
165.66	3.0975	999999
165.76	3.1002	-37.95
165.87	3.1029	-38.2
165.96	3.1056	-38.67
166.07	3.1083	-38.25
166.16	3.1109	-39.45
166.26	3.1136	-40.04
166.37	3.1163	-37.59
166.46	3.119	-37.92
166.57	3.1217	-38.21
166.66	3.1244	-39.21
166.76	3.1271	-40.42
166.87	3.1298	-39.92
166.96	3.1324	-39.29
167.07	3.1351	-41.95
167.16	3.1378	999999
167.26	3.1405	-41.51
167.37	3.1432	-41
167.46	3.1459	-40.44
167.57	3.1486	-38.81
167.66	3.1512	-39.24
167.76	3.1539	-40.92
167.87	3.1566	-40.03
167.96	3.1593	-37.9
168.07	3.162	-38.97
168.16	3.1647	-40.39
168.26	3.1674	-39.77
168.37	3.17	-38.65
168.46	3.1727	-35.56
168.57	3.1754	-36.49
168.66	3.1781	-36.69
168.76	3.1808	-38.49
168.87	3.1835	-39.02
168.96	3.1862	-39.93
169.07	3.1889	-41.44
169.16	3.1915	-41.5
169.26	3.1942	-42.2
169.37	3.1969	-41.12
169.46	3.1996	999999
169.57	3.2024	-39.44
169.66	3.2051	-40.09
169.76	3.2078	-40.75
169.87	3.2106	-39.42
169.96	3.2133	-39.56
170.07	3.2161	-42.05
170.19	3.2195	-39.86
170.26	3.2216	-38.59
170.37	3.2243	-40.42
170.46	3.2271	-40.95
170.57	3.2298	-39.08
170.66	3.2326	-40.6
170.76	3.2353	999999
170.86	3.2379	-37.49
170.96	3.2408	-39.67
171.07	3.2436	-41
171.16	3.2463	-41.6
171.26	3.2491	-40.03
171.37	3.2518	-39.43
171.46	3.2546	-39.66
171.57	3.2573	-38.66
171.66	3.26	-39.45
171.76	3.2628	-39.27
171.87	3.2655	-37.91
171.96	3.2683	-36.38
172.07	3.271	-36.99
172.16	3.2738	-38.73
172.26	3.2765	-39.62
172.37	3.2793	-40.17
172.46	3.282	-40.28
172.55	3.2844	-39.33
172.66	3.2875	-38.84
172.76	3.2903	-38
172.9	3.2938	-39.62
173	3.2967	999999
173.1	3.2995	-40.33
173.16	3.3013	-39.4
173.26	3.304	-40.39
173.37	3.3067	-38.35
173.46	3.3095	-38.89
173.57	3.3122	-39.68
173.66	3.315	-40.13
173.76	3.3177	-40.89
173.87	3.3205	-42.78
173.96	3.3232	-40.95
174.07	3.326	-39.13
174.16	3.3287	-39.57
174.3	3.3324	-39.26
174.37	3.3342	-38.69
174.46	3.337	-41.09
174.57	3.3397	-41.18
174.66	3.3425	-43.43
174.76	3.3452	-43.6
174.87	3.348	-40.39
174.96	3.3507	-39.61
175.07	3.3535	-38.64
175.16	3.3563	999999
175.26	3.3591	-40.32
175.37	3.3619	-40.96
175.46	3.3647	-39.96
175.57	3.3675	-39
175.66	3.3703	-37.63
175.76	3.3731	-38.5
175.87	3.3759	-41.88
175.96	3.3787	-39.59
176.07	3.3815	-37.51
176.16	3.3843	-38.72
176.26	3.3871	-39.97
176.37	3.3899	-39.52
176.46	3.3927	-39.81
176.57	3.3955	-38.33
176.66	3.3983	-38.23
176.76	3.4011	-42.14
176.87	3.4039	999999
176.96	3.4067	-39.88
177.07	3.4095	-39.69
177.16	3.4123	999999
177.26	3.4151	-38.9
177.37	3.4179	-39.69
177.46	3.4207	-40.69
177.57	3.4235	-38.48
177.67	3.4264	-38.56
177.76	3.4291	-40.04
177.87	3.4319	-38.61
177.96	3.4347	-38.01
178.07	3.4375	-38.78
178.16	3.4403	-38.43
178.26	3.4431	-39.22
178.37	3.4459	-41.07
178.49	3.4494	-40.25
178.57	3.4515	-39.36
178.66	3.4543	-39.25
178.76	3.4571	-39.7
178.87	3.4599	-39.67
179.07	3.4655	-40.87
179.16	3.4683	-38.78
179.26	3.4711	-39.94
179.37	3.4739	-40.15
179.46	3.4767	-40.1
179.57	3.4795	-39.12
179.66	3.4823	-38.38
179.76	3.4851	-38.45
179.87	3.4879	-37.51
179.96	3.4907	-36.75
180.07	3.4935	-37.6
180.19	3.497	-39.27
180.26	3.4991	-40.35
180.37	3.5019	-40.2
180.46	3.5047	-39.59
180.57	3.5075	-37.72
180.66	3.5104	-39.29
180.76	3.5132	-39.01
180.87	3.5161	-39.89
180.96	3.519	-39.23
181.07	3.5218	-40.23
181.16	3.5247	-39.41
181.28	3.528	-39.76
181.37	3.5304	-39.27
181.46	3.5332	-38.13
181.57	3.5361	-37.8
181.66	3.5389	-37.31
181.76	3.5418	-38.16
181.87	3.5447	-40.15
181.96	3.5475	-38.94
182.08	3.5508	-38.59
182.16	3.5532	-39.64
182.26	3.5561	-40.29
182.37	3.5589	-39.19
182.46	3.5618	-41.04
182.57	3.5646	-40.08
182.66	3.5675	-39.86
182.76	3.5704	-42.91
182.87	3.5732	-39.83
182.96	3.5761	-37.96
183.07	3.5789	-40.25
183.16	3.5818	-39.6
183.26	3.5846	-39.56
183.37	3.5875	-39.25
183.46	3.5903	-39.9
183.57	3.5932	-39.32
183.66	3.5961	-37.43
183.76	3.5989	-38.93
183.87	3.6018	-39.5
183.96	3.6046	-39.55
184.07	3.6075	-39.95
184.15	3.6099	-40.37
184.26	3.6132	-39.35
184.37	3.616	999999
184.46	3.6189	-38.61
184.55	3.6213	-41.43
184.66	3.6246	-42
184.76	3.6275	-42.41
184.87	3.6303	-41.42
184.96	3.6332	-40.36
185.07	3.636	-38.77
185.16	3.6389	-38.3
185.26	3.6417	-39.49
185.37	3.6446	-39.39
185.48	3.6479	-39.05
185.57	3.6503	-41.04
185.66	3.6532	-39.37
185.76	3.656	-40.18
185.87	3.6589	-40
185.96	3.6617	-41.57
186.07	3.6646	-41.04
186.16	3.6675	-39.98
186.26	3.6704	-39.6
186.37	3.6734	-41.95
186.46	3.6763	-40.35
186.57	3.6792	-38.56
186.66	3.6821	-40.08
186.76	3.685	-40.4
186.87	3.688	-40.62
186.96	3.6909	-40.91
187.07	3.6938	-39.93
187.16	3.6967	999999
187.26	3.6996	-40.79
187.37	3.7026	-40.35
187.46	3.7055	-40.11
187.57	3.7084	-40.78
187.66	3.7113	-40.42
187.76	3.7142	-41.17
187.87	3.7172	-40.72
187.96	3.7201	-39.24
188.07	3.723	-37.87
188.16	3.7259	-38.72
188.26	3.7288	-41.36
188.37	3.7318	-40.13
188.46	3.7344	-40.9
188.57	3.7376	-39.7
188.66	3.7405	-39.36
188.76	3.7434	-38
188.87	3.7464	-38.06
188.96	3.7493	-39.05
189.07	3.7522	-39.71
189.16	3.7551	-38.67
189.26	3.758	-39.16
189.37	3.761	-38.95
189.49	3.7646	-40
189.57	3.7668	-39.36
189.66	3.7697	-39.8
189.76	3.7726	-39.34
189.87	3.7756	-39.19
189.96	3.7785	-39.18
190.07	3.7814	999999
190.26	3.7872	-36.86
190.37	3.7902	-38.74
190.46	3.7931	-39.42
190.57	3.796	-37.92
190.66	3.7989	-39.12
190.76	3.8018	-40.45
190.87	3.8048	-40.15
190.96	3.8077	-37.85
191.07	3.8106	999999
191.16	3.8135	-37.19
191.24	3.8157	-38.53
191.37	3.8194	-41.19
191.46	3.8223	-39.18
191.57	3.8252	-40.58
191.66	3.8282	-40.79
191.76	3.8311	-39.56
191.87	3.8341	-38.66
191.96	3.8371	-39.15
192.07	3.84	-38.17
192.16	3.843	-37.12
192.26	3.846	-38.89
192.37	3.8489	-37.96
192.46	3.8519	-37.31
192.57	3.8549	-38.88
192.66	3.8578	-40.16
192.76	3.8608	-39.98
192.87	3.8638	-38.11
192.96	3.8667	-38.41
193.07	3.8697	-37.76
193.16	3.8727	-38.76
193.26	3.8756	-39.53
193.37	3.8786	-39.89
193.46	3.8815	-38.68
193.57	3.8845	-40.16
193.66	3.8875	-42.06
193.76	3.8904	-41.51
193.87	3.8934	-38.73
193.96	3.8964	-39.33
194.07	3.8993	-40.72
194.16	3.9023	-39.11
194.26	3.9053	-39.49
194.37	3.9082	-39.64
194.46	3.9112	-39.56
194.57	3.9142	-39.96
194.66	3.9171	-40.64
194.76	3.9201	-37.72
194.87	3.9231	999999
194.96	3.926	-38.31
195.05	3.9286	-37.18
195.16	3.932	999999
196.13	3.9606	-40.01
196.26	3.9646	999999
196.37	3.9676	-37.93
196.46	3.9705	-38.8
196.57	3.9735	-40.2
196.66	3.9765	-39.83
196.76	3.9794	-38.84
196.87	3.9824	-40.23
196.96	3.9854	-38.99
197.07	3.9883	-40.1
197.13	3.9903	-38.73
197.26	3.9945	-37.75
197.37	3.9976	-37.88
197.46	4.0008	-38.33
197.57	4.0039	999999
197.66	4.0068	-38.87
197.76	4.0101	-40.39
197.87	4.0132	-40.82
197.96	4.0163	-39.35
198.07	4.0195	-38.36
198.16	4.0226	-39.97
198.26	4.0257	-39.34
198.37	4.0288	-40.78
198.46	4.0319	-41.06
198.57	4.035	-42.46
198.66	4.0382	-41.9
198.76	4.0413	-40.85
198.87	4.0444	-40.9
198.96	4.0475	-41.87
199.07	4.0506	-41.06
199.16	4.0537	-39.53
199.26	4.0568	-40.3
199.34	4.0592	-41.19
199.46	4.0631	-39.02
199.57	4.0662	-37.53
199.66	4.0693	-39.19
199.76	4.0724	-39.17
199.87	4.0755	-38.22
199.96	4.0787	-39.84
200.07	4.0818	-40.55
200.22	4.0866	-33.49
200.4	4.0922	-40.35
200.6	4.0985	999999
200.81	4.105	-39.75
201	4.1109	-40.42
201.2	4.1171	-41.06
201.41	4.1237	-39.64
201.62	4.1302	-40.73
201.8	4.1358	-39.38
202.14	4.1464	-38.37
202.4	4.1545	-39.33
202.6	4.1608	-38.97
202.82	4.1676	-38.74
203	4.1732	-39.96
203.2	4.1794	-40.75
203.4	4.1856	-38.78
203.6	4.1918	-39.37
203.8	4.198	-37.97
204	4.2042	-41.02
204.2	4.2104	-41.43
204.4	4.2166	-39.4
204.6	4.2228	-39.8
204.8	4.2289	-40.61
205	4.2351	-38.31
205.2	4.2413	-40.21
205.4	4.2475	-40.05
205.6	4.2537	-39.11
205.8	4.2599	-40
206	4.2661	-38.46
206.2	4.2723	-38.07
206.4	4.2785	-37.86
206.8	4.2909	-38.64
207	4.2971	-38.84
207.2	4.3033	-39.63
207.4	4.3095	-38.95
207.6	4.3157	-39.18
207.8	4.3219	-39.59
208	4.3281	-38.83
208.2	4.3343	-39.46
208.4	4.3407	-39.32
208.6	4.347	-38.48
208.8	4.3534	-40.58
209	4.3597	-39.1
209.2	4.3661	-38.87
209.42	4.3731	999999
209.6	4.3788	-39.83
209.8	4.3851	-39.54
210	4.3915	-39.68
210.22	4.3984	-41.6
210.4	4.4042	-41.47
210.54	4.4086	-40.3
210.69	4.4134	-40.18
210.89	4.4197	-39.16
211.09	4.4261	-40
211.25	4.4311	-39.38
211.4	4.4359	-40.95
211.6	4.4422	-40.36
211.8	4.4486	-38.65
212	4.4549	-39.59
212.2	4.4613	-39.74
212.4	4.4676	-39.71
212.62	4.4746	-38.69
212.8	4.4803	-36.94
213	4.4867	-37.2
213.2	4.493	-39.11
213.4	4.4994	-38.44
213.6	4.5057	-39.14
213.8	4.5123	-39.51
214	4.5189	-39.94
214.2	4.5255	-40.05
214.4	4.5321	999999
214.6	4.5387	-39.39
214.8	4.5454	-41.76
215	4.552	-39.98
215.2	4.5586	-37.49
215.4	4.5652	-38.96
215.6	4.5719	-39.89
215.8	4.5785	-40.04
216	4.5851	-39.61
216.2	4.5917	-38.88
216.4	4.5984	-37.76
216.6	4.605	-40.35
216.8	4.6116	-40.84
217	4.6182	-38.13
217.2	4.6249	999999
218.13	4.6557	-39.3
218.2	4.658	-40.27
218.4	4.6646	-39.53
218.6	4.6712	-39.02
218.8	4.6778	-37.8
219.03	4.6855	999999
219.4	4.6976	-39.79
219.6	4.7042	-38.78
219.8	4.7107	-38.76
220	4.7172	-38.12
220.22	4.7244	-39.9
220.4	4.7303	-38.81
220.6	4.7368	-38.77
220.8	4.7434	-39.57
221	4.7499	-40.43
221.2	4.7564	-39.29
221.4	4.763	-39.09
221.6	4.7695	-40.27
221.8	4.776	-41.16
222	4.7826	-39.98
222.2	4.7891	-41.81
222.4	4.7956	-41.41
222.6	4.8022	-41.3
222.8	4.8087	-40.4
223.08	4.8178	-40.42
223.2	4.8218	-41.02
223.4	4.8283	-38.73
223.6	4.8348	-39.05
223.8	4.8414	-39.77
224	4.8479	-38.12
224.2	4.8544	-38.48
224.4	4.861	-39.54
224.6	4.8675	-38.98
224.8	4.8741	-39.62
225	4.8809	-38.23
225.2	4.8877	-39.06
225.4	4.8945	-39.83
225.6	4.9012	-39.78
225.8	4.908	-38.57
226	4.9148	-39.04
226.2	4.9216	-39.92
226.4	4.9283	-40.81
226.6	4.9351	-39.72
226.8	4.9419	-40.03
227	4.9487	-40.92
227.2	4.9554	-40
227.4	4.9622	-39.19
227.6	4.969	-39.32
227.8	4.9758	-39.95
228	4.9826	-39.91
228.2	4.9893	-41.04
228.4	4.9961	-39.4
228.6	5.0029	-40
228.8	5.0097	-40
229	5.0164	-41.78
229.2	5.0232	-38.67
229.4	5.03	-39.9
229.6	5.0368	-37.15
229.8	5.0435	-38.92
230	5.0503	-39.09
230.22	5.0578	-38.71
230.4	5.0641	-39.16
230.6	5.0711	-39.11
230.8	5.0781	-40.93
231	5.0851	-39.37
231.2	5.0921	-38.67
231.4	5.0991	-40.93
231.6	5.1061	-40.61
231.8	5.1131	-39.51
232	5.1202	-38.28
232.2	5.1272	-39.33
232.4	5.1342	-40.12
232.6	5.1412	-39.27
232.8	5.1482	-40.95
233	5.1552	-39.17
233.2	5.1622	-38.66
233.4	5.1692	-38.52
233.6	5.1763	-38.69
233.8	5.1833	999999
234.28	5.2001	-39.86
234.4	5.2043	-39.34
234.6	5.2113	999999
235	5.2253	-39.45
235.25	5.2341	-39.05
235.4	5.2394	-37.87
235.6	5.2464	-39.09
235.8	5.2534	-39.9
236	5.2606	-40.19
236.2	5.2677	-39.66
236.4	5.2749	-39.7
236.6	5.282	-39.73
236.8	5.2892	-40.05
237	5.2963	-39.59
237.2	5.3035	-38.28
237.4	5.3107	-38.9
237.6	5.3178	-38.14
237.8	5.325	-39.58
238	5.3321	-39.65
238.2	5.3393	-39.67
238.4	5.3464	-38.64
238.6	5.3536	-38.57
238.8	5.3607	-39.31
239	5.3679	-39
239.23	5.3761	-39.95
239.4	5.3822	-39.09
239.6	5.3894	-39.75
239.8	5.3965	-39.57
240	5.4037	-39.94
240.23	5.4119	-37.76
240.47	5.4205	-38.84
240.6	5.4252	-37.01
240.8	5.4323	-36.67
241	5.4395	-39.53
241.2	5.4466	-38.65
241.4	5.4539	-39.73
241.6	5.4612	999999
241.8	5.4686	-40.74
242	5.4759	-39.6
242.2	5.4833	-40.45
242.4	5.4906	-39.55
242.6	5.498	-37.38
242.8	5.5053	-38.95
243	5.5126	-39.74
243.2	5.52	-39.85
243.4	5.5273	-38.7
243.6	5.5347	-39.48
243.8	5.542	-40.33
244	5.5494	-40.75
244.2	5.5567	-39.14
244.4	5.5641	-37.64
244.6	5.5714	999999
244.8	5.5788	-38.9
245	5.5861	-38.53
245.2	5.5935	-41.84
245.4	5.6008	-40.26
245.6	5.6081	-40.22
245.8	5.6155	-38.45
246	5.6228	-39.63
246.2	5.6302	-38.83
246.4	5.6375	-38.7
246.6	5.6449	-37.05
246.8	5.6522	-37.23
247	5.6598	-39.96
247.2	5.6673	-40.54
247.4	5.6749	-39.02
247.6	5.6824	-37.11
247.8	5.69	-39
248	5.6976	-38.44
248.2	5.7051	999999
248.4	5.7127	-38.79
248.6	5.7202	999999
248.8	5.7278	-37.74
249	5.7354	-37.47
249.2	5.7429	-37.71
249.4	5.7505	-37.76
249.6	5.758	-37.84
249.8	5.7656	-38.61
250	5.7732	-39.83
250.23	5.7818	-39.93
250.4	5.7883	-38.88
250.6	5.7958	999999
250.8	5.8034	-37.83
251	5.811	-39.03
251.2	5.8185	999999
251.4	5.8261	-38.32
251.6	5.8336	-39.14
251.8	5.8412	-38.94
252	5.8488	-38.67
252.2	5.8563	-38.73
252.4	5.8639	-38.11
252.6	5.8717	-37.5
252.8	5.8794	-40.76
253	5.8872	-38.08
253.2	5.895	-37.92
253.4	5.9027	-38.83
253.6	5.9105	-40
253.8	5.9182	-40.47
254	5.926	-38.26
254.2	5.9338	-38.7
254.4	5.9415	-38.3
254.6	5.9493	-38.89
254.8	5.957	-39.38
255	5.9648	-39.57
255.2	5.9725	-37.82
255.4	5.9803	-37.94
255.6	5.9881	-39.25
255.78	5.995	-38.19
256	6.0036	-38.85
256.2	6.0113	-39.32
256.4	6.0191	999999
256.6	6.0269	-37.8
256.8	6.0346	999999
257.15	6.0482	-39.41
257.25	6.0521	-38.64
257.4	6.0579	-37.91
257.6	6.0657	-37.61
257.8	6.0734	-39.82
258	6.0813	-38.47
258.2	6.0893	-37.4
258.4	6.0973	-38.25
258.6	6.1053	-41.1
258.8	6.1133	-39.19
259	6.1214	-38.96
259.2	6.1294	-37.66
259.4	6.1374	-37.76
259.6	6.1454	-38.87
259.8	6.1534	-39.69
260	6.1614	-38.82
260.2	6.1694	999999
261.9	6.2375	-40.27
262.1	6.2455	-38.8
262.3	6.2535	-37.79
262.49	6.2611	-39.16
262.65	6.2675	-38.81
262.8	6.2735	-38.29
263	6.2815	-38.87
263.2	6.2895	-37.64
263.4	6.2975	-38.31
263.6	6.3057	-38.42
263.8	6.314	-39.88
264	6.3223	-40.4
264.2	6.3305	-36.66
264.4	6.3388	-38.27
264.6	6.347	-40.47
264.8	6.3553	-37.81
265	6.3635	-39.57
265.2	6.3718	-38.16
265.4	6.38	-39.84
265.6	6.3883	-37.75
265.8	6.3965	-38.69
266	6.4048	-39
266.2	6.413	-37.89
266.4	6.4213	-39.13
266.6	6.4295	-38.44
266.8	6.4378	-38.49
267	6.446	-37.05
267.2	6.4543	-38.11
267.4	6.4625	-39.03
267.6	6.4708	-38.53
267.8	6.479	-38.84
268	6.4873	-38.64
268.24	6.4972	-39.31
268.4	6.5038	-38.87
268.6	6.5121	999999
268.8	6.5203	-39.2
269	6.5286	-37.94
269.2	6.5371	-39.08
269.4	6.5456	-37.44
269.6	6.5541	-38.41
269.8	6.5626	-38.81
270.01	6.5716	-39.19
270.2	6.5796	-39.13
270.4	6.5881	-37.81
270.6	6.5966	-40.32
270.8	6.6051	-39.27
271	6.6136	-39.83
271.2	6.6222	-37.44
271.8	6.6477	999999
272	6.6562	-38.05
272.2	6.6647	-38.02
272.4	6.6732	-38.87
272.6	6.6817	-38.19
272.8	6.6902	-38.36
273	6.6987	-40.09
273.2	6.7072	-38.69
273.4	6.7157	-38.44
273.6	6.7242	-38.75
273.8	6.7327	-37.66
274	6.7412	-38.6
274.15	6.7476	-37.71
274.4	6.7582	-38.73
274.6	6.7669	-38.22
274.8	6.7757	-37.33
275	6.7845	-40.12
275.2	6.7934	-38.71
275.4	6.8022	-37.72
275.6	6.811	-38.47
275.8	6.8199	-38.96
276	6.8287	-39.15
276.2	6.8375	-38.34
276.4	6.8463	-38.75
276.6	6.8552	-37.63
276.8	6.864	-36.92
277	6.8728	-38.08
277.2	6.8816	-37.77
277.4	6.8905	-38.73
277.6	6.8993	-38.41
277.8	6.9081	-39.04
278	6.9169	-38.28
278.2	6.9258	-39.39
278.4	6.9346	-38.85
278.6	6.9434	-38.68
278.8	6.9522	-38.35
279	6.9611	-36.96
279.2	6.9699	-37.69
279.4	6.9787	-38.31
279.58	6.9867	-38.54
279.8	6.9964	-39.61
280	7.0052	-37.75
280.2	7.0143	-38.27
280.4	7.0234	-38.41
280.6	7.0326	-39.51
280.8	7.0417	-39.41
281	7.0508	-38.37
281.2	7.0599	-38.31
281.4	7.069	-38.98
281.6	7.0781	-38.47
281.8	7.0873	-38.96
282	7.0964	-39.33
282.2	7.1055	-37.94
282.4	7.1146	-38.61
282.6	7.1237	-38.61
282.8	7.1328	-37.79
283	7.142	-38.32
283.2	7.1511	-37.49
283.4	7.1602	-37.87
283.6	7.1693	-37.93
283.76	7.1766	-37.93
284	7.1875	-38.24
284.2	7.1967	-37.98
284.4	7.2058	-38.23
284.6	7.2149	-37.56
284.8	7.224	-39.01
285	7.2331	-38.66
285.2	7.2422	-38.24
285.4	7.2513	-38.06
285.6	7.2606	-38.17
285.8	7.27	-37.53
286	7.2795	-38.33
286.2	7.2889	-38.5
286.4	7.2984	-38.25
286.6	7.3078	-37.5
286.8	7.3173	-37.07
287	7.3267	-36.9
287.2	7.3362	-36.61
287.4	7.3456	-37.21
287.6	7.3551	-37.33
287.8	7.3645	-38.62
288	7.374	-38.84
288.2	7.3834	-38.84
288.4	7.3929	-37.99
288.6	7.4023	-37.53
288.8	7.4118	-36.45
289	7.4212	-38.13
289.2	7.4307	-37.75
289.4	7.4401	-38.39
289.55	7.4472	-38.83
289.8	7.459	-39.12
290	7.4685	-38.96
290.2	7.4779	-37.66
290.4	7.4874	-37.48
290.6	7.4968	-38.04
290.7	7.5015	-37.56
290.9	7.511	-39.44
291.1	7.5205	-37.18
291.3	7.5304	-37.42
291.4	7.5353	999999
291.58	7.5441	-37.98
291.8	7.555	-37.98
292	7.5648	-39.41
292.2	7.5746	-39.07
292.4	7.5845	-37.7
292.6	7.5943	-37.85
292.8	7.6042	-38.16
293	7.614	-38.21
293.2	7.6238	-39.2
293.4	7.6337	-37.53
293.6	7.6435	-38.02
293.8	7.6533	-39.07
294	7.6632	-37.49
294.2	7.673	-38.88
294.4	7.6829	-38.94
294.6	7.6927	-38.47
294.8	7.7025	-39.45
295	7.7124	-38.21
295.2	7.7222	-38.18
295.4	7.732	-38.41
295.6	7.7419	-38.1
295.8	7.7517	-39.79
296	7.7616	-39.06
296.2	7.7714	-38.26
296.4	7.7812	-39.52
296.6	7.7911	-40.13
296.8	7.8013	-38.89
297	7.8115	-37.81
297.2	7.8218	-39.18
297.4	7.832	-38.15
297.6	7.8422	-37.52
297.8	7.8524	-38.03
298	7.8626	-38.63
298.2	7.8728	-38.98
298.4	7.883	-38.36
298.64	7.8953	-39.59
298.8	7.9034	-37.71
299	7.9136	-38.41
299.2	7.9239	-37.83
299.4	7.9341	-38.31
299.58	7.9433	-38.74
299.8	7.9545	-37.31
299.96	7.9627	-38.94
300.2	7.9749	-38.32
300.5	7.9902	999999
301.31	8.0316	-37.69
301.5	8.0413	-39.59
301.6	8.0464	-39.34
301.8	8.0566	-38.11
302	8.0668	-38.34
302.2	8.0772	-39.15
302.4	8.0879	-38.65
302.6	8.0985	-38.92
302.8	8.1092	-37.83
303	8.1198	-37.6
303.2	8.1305	-39.19
303.4	8.1411	-39.29
303.6	8.1518	-38.21
303.8	8.1624	-38.63
304	8.1731	-38.76
304.2	8.1837	-38.38
304.4	8.1944	-38.32
304.6	8.2051	-39.12
304.8	8.2157	-38.98
305	8.2264	-37.91
305.2	8.237	-37.48
305.4	8.2477	-38.08
305.6	8.2583	-39.22
305.8	8.269	-38.45
306	8.2796	-39.64
306.2	8.2903	-37.79
306.4	8.3009	-38.19
306.6	8.3116	-40.33
306.8	8.3222	-39.67
307	8.3329	-38.12
307.2	8.3435	-38.59
307.4	8.3542	-38.69
307.6	8.3648	-38.19
307.8	8.3759	-38.68
308	8.387	-37.4
308.2	8.3982	-38.35
308.4	8.4093	-38.39
308.6	8.4204	-39.58
308.8	8.4315	-39.37
309	8.4427	-38.89
309.2	8.4538	-39.27
309.4	8.4649	-38.93
309.6	8.476	-38.12
309.8	8.4872	-38.33
310	8.4983	-39.16
310.2	8.5094	-38.38
310.4	8.5206	-38.69
310.6	8.5317	-38.17
310.8	8.5428	-38.38
311	8.5539	-39.67
311.2	8.5651	-39.23
311.4	8.5762	999999
311.6	8.5873	-37.21
311.8	8.5985	-38.75
312	8.6096	-39.05
312.2	8.6207	-40.07
312.4	8.6318	-39.4
312.6	8.643	-38.88
312.8	8.6541	-38.64
313	8.6652	-37.53
313.2	8.6764	-39.62
313.4	8.688	-39.44
313.6	8.6996	-38.6
313.8	8.7112	-38.45
314	8.7228	-37.48
314.2	8.7344	-38.63
314.38	8.7449	-38.41
314.6	8.7576	-39.32
314.8	8.7692	-38.6
315	8.7808	-37.75
315.2	8.7924	-38.93
315.4	8.804	-39.43
315.6	8.8156	-38.75
315.8	8.8272	-38.96
316	8.8388	-37.59
316.2	8.8504	-38.36
316.4	8.862	-39.38
316.6	8.8736	-38.14
316.8	8.8852	-39.42
317	8.8968	-38.16
317.2	8.9084	-38.95
317.4	8.92	-38.87
317.6	8.9316	-38.62
317.8	8.9432	-39.42
318	8.9548	-38.99
318.2	8.9664	-38.03
318.4	8.978	-40.12
318.6	8.9896	-39.08
318.8	9.0015	-38.61
319	9.0137	-38.42
319.2	9.0259	-38.83
319.4	9.0381	-39.33
319.6	9.0503	-38.49
319.8	9.0625	-38.92
320	9.0747	-38.41
320.2	9.0869	-39.85
320.4	9.0991	-38.95
320.6	9.1113	-38.44
320.8	9.1235	-39.93
321	9.1357	-38.83
321.2	9.1479	-37.7
321.4	9.1601	999999
321.6	9.1723	-38.1
321.8	9.1845	-37.97
322	9.1967	-38.77
322.2	9.2089	-39.62
322.4	9.2211	-39.18
322.6	9.2333	-38.34
322.8	9.2455	-38.57
323	9.2577	-38.72
323.2	9.2699	-38.65
323.4	9.2821	999999
323.6	9.2943	-37.91
323.8	9.3065	-37.86
324	9.3187	-38.41
324.2	9.3309	-37.93
324.4	9.3436	-37.94
324.64	9.359	-37.97
324.8	9.3692	-39.16
325	9.3819	-38.84
325.2	9.3947	-38.62
325.4	9.4075	-38.34
325.6	9.4203	-38.84
325.8	9.433	-39.1
326	9.4458	-39.88
326.2	9.4586	-39.19
326.4	9.4713	-37.99
326.6	9.4841	-39.6
326.8	9.4969	-39.51
327	9.5096	-38.69
327.2	9.5224	-40.15
327.4	9.5352	-38.32
327.6	9.548	-38.01
327.8	9.5607	-37.99
328	9.5735	-38.64
328.2	9.5863	-38.57
328.4	9.599	-39.27
328.6	9.6118	-38.46
328.8	9.6246	-38.57
329	9.6374	-38.62
329.2	9.6501	-39.28
329.4	9.6629	-38.35
329.6	9.6757	-38
329.8	9.6886	-36.91
330	9.702	-37.77
330.2	9.7154	999999
330.4	9.7288	-39.23
330.6	9.7422	-39.21
330.8	9.7556	-38.48
331	9.769	-36.82
331.2	9.7824	-37.49
331.4	9.7958	-38.46
331.6	9.8091	-37.22
331.8	9.8225	-37.56
332	9.8359	-37.88
332.2	9.8493	-38.07
332.4	9.8627	-37.82
332.6	9.8761	-36.68
332.8	9.8895	-37.59
333	9.9029	-37.46
333.2	9.9163	-38.54
333.4	9.9297	-39.06
333.6	9.9431	999999
333.8	9.9565	-38.21
334	9.9698	-37.5
334.2	9.9832	-37.87
334.4	9.9966	-38.95
334.6	10.01	-37.88
334.8	10.023	-38.1
335	10.037	-37.87
335.2	10.05	-37.01
335.4	10.064	-37.45
335.6	10.078	-38.24
335.8	10.092	-38.41
336	10.107	-39.24
336.23	10.123	-37.77
336.4	10.135	-38.41
336.6	10.149	-38.67
336.8	10.163	-37.83
337	10.177	999999
337.2	10.191	-38.62
337.38	10.204	-38.8
337.6	10.22	-38.61
337.76	10.231	-37.05
338.01	10.249	-38.85
338.23	10.264	-37.3
338.4	10.276	-37.1
338.6	10.29	-37.27
338.8	10.305	-38.24
339	10.319	-38.2
339.2	10.333	-38.83
339.4	10.347	-39.32
339.6	10.361	-36.59
339.8	10.375	-37.47
340	10.389	999999
340.2	10.404	-37.84
340.4	10.418	-37.29
340.58	10.43	-38.32
340.8	10.446	-37.82
341	10.461	-38.24
341.2	10.476	-38.26
341.42	10.492	-38.31
341.6	10.506	-38.6
341.8	10.52	-37.85
342	10.535	-37.27
342.2	10.55	-36.98
342.45	10.569	-36.94
342.6	10.58	-38.07
342.83	10.597	-38.59
343	10.61	-37.55
343.2	10.625	-38.52
343.4	10.64	-37.58
343.56	10.652	-38.5
343.8	10.669	-38.32
344	10.684	-37.11
344.2	10.699	-40.71
344.4	10.714	-37.59
344.6	10.729	-37.94
344.8	10.744	999999
345	10.759	-38.47
345.2	10.774	-39.14
345.4	10.789	-37.01
345.6	10.803	-36.43
345.8	10.818	-37.84
346	10.833	-38.19
346.2	10.848	-38.2
346.4	10.863	-37.94
346.6	10.879	-39.13
346.8	10.895	-37.76
347	10.91	-38.2
347.2	10.926	-36.94
347.4	10.942	-37.5
347.6	10.957	-37.08
347.8	10.973	-37.8
348	10.989	-37.48
348.2	11.004	999999
348.4	11.02	-37.25
348.6	11.036	-37.03
348.8	11.051	-37
349	11.067	-37.33
349.2	11.083	-38.19
349.4	11.098	-37.89
349.6	11.114	-37.85
349.8	11.129	-37.64
350	11.145	-36.89
350.2	11.161	-37.38
350.4	11.176	-38.47
350.58	11.191	-38.33
350.8	11.208	-37.6
351	11.223	-36.39
351.2	11.239	-37.93
351.4	11.255	-38.03
351.62	11.272	-37.97
351.8	11.286	-35.91
351.97	11.302	-37.69
352.2	11.324	-36.92
352.38	11.342	-36.54
352.6	11.363	-37.23
352.82	11.385	-37.59
353.01	11.403	-37.73
353.2	11.422	-36.94
353.4	11.441	-37.22
353.6	11.461	-37.41
353.8	11.48	-37.48
354	11.499	-38.1
354.2	11.519	-37.39
354.4	11.538	-38.27
354.6	11.558	-38.06
354.8	11.577	-40.1
355	11.597	-36.95
355.2	11.616	-38.71
355.4	11.636	-38.23
355.6	11.655	-38.38
355.8	11.675	-39
356	11.694	-38.89
356.2	11.714	-37.98
356.4	11.733	-38.33
356.6	11.753	-38.32
356.8	11.772	-37.71
357.03	11.795	-37.54
357.2	11.811	-38.07
357.4	11.832	-38.22
357.5	11.849	-39.07
358	11.934	-38.42
358.2	11.968	-38.2
358.4	12.002	-38.17
358.5	12.019	-39.05
359	12.104	-38.12
359.5	12.189	-38.82
359.6	12.206	-38.71
359.8	12.24	-39.78
360	12.274	-38.91
360.2	12.308	-39.55
360.4	12.342	-39.77
360.58	12.373	-40.58
360.8	12.41	-39.9
361	12.444	-39.63
361.2	12.478	-39.47
361.4	12.512	-38.64
361.6	12.546	-38.7
361.8	12.58	-39.12
362	12.614	-39.3
362.2	12.648	-39.49
362.4	12.682	-39.45
362.6	12.716	-40.01
362.8	12.75	-38.8
363	12.781	-38.69
363.2	12.81	-38.12
363.4	12.839	-39.17
363.6	12.868	-39.28
363.8	12.897	-41
363.97	12.922	-40.54
364.2	12.955	-38.43
364.4	12.984	-38.71
364.6	13.013	-38.75
364.78	13.039	-39.3
365	13.07	-39.2
365.2	13.099	-39.47
365.42	13.131	-38.82
365.6	13.157	-38.98
365.8	13.186	-38.86
365.97	13.21	-39.1
366.2	13.244	-38.67
366.4	13.273	-39.43
366.6	13.301	-38.83
366.8	13.33	-38.4
366.97	13.355	-38.42
367.2	13.388	-39.62
367.4	13.417	-38.29
367.6	13.446	-38.01
367.8	13.475	-39.16
368	13.504	-38.32
368.2	13.533	-37.89
368.4	13.561	-37.26
368.6	13.604	-38.61
368.76	13.639	-38.41
369	13.692	-36.93
369.2	13.737	-37.2
369.4	13.781	-38.01
369.6	13.826	-38.12
369.8	13.87	-38.44
370	13.915	-38.64
370.2	13.959	-39.08
370.4	14.003	-39.64
370.6	14.048	-36.66
370.84	14.101	-37.03
371	14.137	-38.48
371.2	14.181	-38.61
371.4	14.226	-37.87
371.6	14.27	-38.26
371.82	14.319	-38.71
372	14.359	-40.44
372.2	14.403	-40.33
372.4	14.448	-40.79
372.6	14.492	-38.88
372.8	14.537	-39.11
373	14.581	-39.83
373.2	14.626	-40.49
373.4	14.67	-39.35
373.63	14.721	-39.39
373.83	14.766	-40.52
374.06	14.893	-42.83
374.2	15.027	-41.99
374.42	15.238	-43.91
374.6	15.41	-42.82
374.84	15.64	-43.66
375	15.794	-43.95
375.2	15.986	-43.92
375.4	16.177	-44.65
375.6	16.369	-44.42
375.8	16.561	-43.45
376	16.753	-42.47
376.2	16.944	-41.92
376.4	17.136	-43.17
376.6	17.328	-44.27
376.8	17.52	-43.95
377	17.711	-44.4
377.2	17.903	-44.76
377.4	18.095	-44.55
377.6	18.287	-43.77
377.8	18.478	-44.08
378	18.67	-42.87
378.2	18.862	-42.85
378.4	19.054	-42.3
378.6	19.245	-42.5
378.82	19.456	-43.06
379	19.629	-42.77
379.2	19.821	-41.94
379.4	20.012	-41.57
379.58	20.199	-41.67
379.8	20.441	-41.85
380	20.661	-41.08
380.2	20.881	-42.59
380.4	21.102	-41.57
380.65	21.377	-41.9
380.85	21.597	-41.89
381.05	21.818	-41.58
381.25	22.038	-42.38
381.4	22.203	-41.2
381.6	22.423	999999
381.8	22.644	-42.84
382	22.864	-43.45
382.2	23.084	-42.51
382.4	23.305	-42.92
382.48	23.393	999999
382.5	23.415	-43.55
383	23.965	-43.1
383.5	24.516	-42.48
384.26	25.353	-42.31
384.5	25.618	-41.65
384.6	25.728	-41.94
384.8	25.948	-43.43
385	26.168	-41.36
385.2	26.347	-42.81
385.5	26.612	-42.97
385.6	26.701	-43.27
385.8	26.877	-42.15
386	27.054	-42.49
386.2	27.23	-43.38
386.4	27.407	-42.1
386.6	27.584	-41.68
386.8	27.76	-41.51
387	27.937	-41.36
387.2	28.113	-41.39
387.5	28.378	-41.43
387.95	28.775	-41.75
388.5	29.261	-41.41
388.6	29.349	-40.67
388.8	29.526	-42.21
389	29.702	-42.09
389.2	29.879	-42.94
389.4	30.056	999999
389.6	30.232	-43.19
389.8	30.409	-42.58
390	30.585	-42
390.2	30.762	-42.01
390.42	30.956	-41.86
390.6	31.1	-42.11
390.8	31.229	-41.06
391.04	31.384	-41.35
391.2	31.488	-41.89
391.4	31.617	-41.19
391.6	31.746	-40.81
391.8	31.875	-40.97
392	32.004	-40.72
392.2	32.133	-41.13
392.4	32.262	-41.2
392.6	32.391	-42.16
392.8	32.52	-40.59
393	32.649	-41.27
393.2	32.778	-40.85
393.4	32.907	-40.27
393.6	33.036	-40.45
393.78	33.152	-40.56
394	33.294	-41.77
394.2	33.423	-41.01
394.4	33.552	-41.37
394.6	33.681	-41.79
394.8	33.81	-41.75
395	33.939	-41.66
395.2	34.068	-41.51
395.4	34.197	-41.14
395.6	34.326	-42.42
395.8	34.455	-42.3
396	34.584	-41.99
396.2	34.69	-42.15
396.4	34.783	-41.69
396.6	34.877	-42.41
396.75	34.947	-41.74
397	35.064	-42.38
397.2	35.158	-40.94
397.5	35.298	-41.1
397.6	35.345	-41.05
397.83	35.452	-42.17
398	35.532	-42.66
398.2	35.626	-41.95
398.4	35.719	-41.56
398.6	35.813	-40.59
398.83	35.92	-41.41
399	36	-40.48
399.18	36.084	-41.55
399.4	36.187	-41.77
399.5	36.234	-41.03
399.65	36.304	-40.26
399.8	36.374	-40.99
400	36.468	999999
400.03	36.482	-40.95
400.5	36.702	-40.42
401	36.936	999999
401.03	36.95	-40.09
401.18	37.02	-40.93
401.4	37.123	-41.2
401.8	37.277	-40.73
401.98	37.332	-40.18
402.2	37.399	-40.73
402.4	37.46	-39.38
402.6	37.522	-40.16
402.75	37.567	-40.12
402.9	37.613	-39.93
403.27	37.727	-40.22
403.5	37.797	-39.49
403.65	37.843	-41.67
403.8	37.889	-40.11
404	37.95	-39.93
404.2	38.011	-40.33
404.4	38.072	-40.78
404.6	38.133	-40.69
404.8	38.194	-41.32
405	38.256	-40.28
405.2	38.317	-39.3
405.4	38.378	-40.56
405.58	38.433	-40.22
405.8	38.5	-40.62
405.97	38.552	-40.37
406.2	38.623	-40.53
406.4	38.684	-39.93
406.6	38.745	-41.51
406.8	38.806	-40.44
407	38.867	-41.13
407.2	38.929	-40.2
407.42	38.996	-40.32
407.6	39.051	-40.42
407.8	39.112	-41.65
407.98	39.167	-40.46
408.2	39.235	-40.36
408.4	39.296	-40.78
408.6	39.357	-40.49
409	39.479	-40.55
409.5	39.632	999999
410.87	40.051	-41.36
411	40.091	-40.96
411.2	40.152	-41.88
411.4	40.214	-42.63
411.6	40.275	-41.63
411.8	40.336	-42.05
412	40.397	-41.38
412.2	40.458	-42.06
412.4	40.52	-40.55
412.6	40.581	-41.26
412.8	40.64	-41.86
413	40.7	-42.55
413.2	40.759	-41.2
413.4	40.818	-42.02
413.6	40.877	-41.46
413.82	40.943	-42.28
414	40.996	-41.01
414.2	41.055	-41.74
414.4	41.114	-41.43
414.62	41.179	-42.46
414.8	41.233	-42.22
415.03	41.301	-42.96
415.17	41.342	-41.03
415.6	41.47	-42.24
415.8	41.529	-42.77
416.02	41.594	-41.2
416.2	41.647	-43.09
416.39	41.704	-41.26
416.6	41.766	-42.44
416.8	41.825	-42.65
417	41.884	-41.31
417.2	41.943	-41.91
417.5	42.032	-41.05
417.6	42.062	-42.42
417.82	42.127	-42.21
418	42.18	-41.47
418.2	42.237	-43.07
418.4	42.277	-41.55
418.6	42.317	-42.73
419	42.398	-41.99
419.5	42.498	-41.72
419.6	42.518	-42.34
419.8	42.558	-40.73
419.98	42.594	-41.46
420.25	42.649	-41.32
420.4	42.679	-40.39
420.6	42.719	-41.57
420.8	42.759	-41.68
421	42.799	-41.44
421.2	42.839	-40.97
421.4	42.879	-41.71
421.5	42.899	-41.32
421.8	42.96	-42.33
422.02	43.004	-42.21
422.17	43.034	-42.44
422.4	43.08	-40.06
422.6	43.12	999999
423.66	43.333	-41.72
423.8	43.36	-42.19
424	43.397	-42.13
424.5	43.489	-42.12
425.03	43.588	-41.91
425.2	43.619	-42.07
425.4	43.656	-41
425.55	43.684	-41.8
427.04	43.961	-40.29
427.54	44.053	-39.93
428.27	44.189	-40.45
428.54	44.239	-40.64
429.53	44.44	-42.4
429.65	44.469	-41.05
429.8	44.506	-42.04
430	44.554	-40.21
430.2	44.603	-41.3
430.4	44.652	-42.64
430.6	44.701	-42.75
430.8	44.749	-42.56
431	44.798	-41.2
431.2	44.847	-41.72
431.4	44.895	-41.25
431.6	44.944	-41.45
431.81	44.995	-41.44
432	45.041	-41.06
432.2	45.09	-41.16
432.4	45.139	-40.9
432.65	45.2	-41.09
432.8	45.236	-41.55
433	45.285	-39.96
433.5	45.407	-41.39
433.67	45.448	-40.24
433.78	45.475	-39.56
434.03	45.536	-40.24
434.2	45.577	-39.6
434.4	45.626	-39.56
434.7	45.699	-38.81
434.8	45.725	-40
435	45.783	-39.9
435.2	45.841	-39.85
435.4	45.899	-39.19
435.6	45.957	-38.74
435.8	46.014	-38.53
436	46.072	-39.18
436.18	46.124	-39.24
436.38	46.182	-38.61
436.6	46.246	-38.98
436.8	46.303	-38.96
437	46.361	-39.41
437.2	46.419	-38.93
437.4	46.477	-37.17
437.6	46.535	-38.83
437.8	46.592	-39.08
438	46.65	-39.67
438.2	46.708	-38.48
438.4	46.766	-38.45
438.6	46.824	-39.63
438.8	46.881	-39.1
439	46.939	-40.03
439.2	46.997	-38.97
439.4	47.055	-39.06
439.6	47.113	-39.79
439.8	47.17	-39.66
440	47.228	-40.19
440.2	47.286	-39.63
440.4	47.348	-38.9
440.6	47.413	-39.2
440.8	47.478	-39.61
441	47.543	-39.2
441.2	47.608	-39.42
441.4	47.673	-39.72
441.6	47.738	-39.02
441.78	47.796	-39.43
442.02	47.874	-39.39
442.2	47.933	-40.81
442.4	47.998	-40.21
442.65	48.079	-40.16
442.8	48.128	-40.11
443	48.193	-41.69
443.22	48.264	-41.46
443.4	48.323	-41.29
443.6	48.388	-42.19
443.8	48.453	-42.07
444	48.518	-42.17
444.2	48.583	-40.63
444.4	48.648	-40.6
444.6	48.713	-40.35
444.82	48.784	-40.21
445	48.843	-39.66
445.18	48.901	-40.79
445.43	48.982	-40.6
445.6	49.038	-41.32
445.8	49.103	-41.18
446	49.183	-41.09
446.2	49.265	-41.25
446.4	49.346	-40.72
446.6	49.428	-40.69
446.8	49.509	-41.3
447	49.59	-40.89
447.2	49.672	-40.66
447.4	49.753	-40.08
447.6	49.835	-41.08
447.77	49.904	-40.81
448	49.998	-39.41
448.2	50.079	-40.02
448.4	50.161	-40.15
448.6	50.242	-38.99
448.8	50.324	-39.49
449	50.405	-39.55
449.2	50.487	-39.79
449.4	50.568	-40.61
449.6	50.65	-39.88
449.8	50.731	-39.66
450.02	50.821	-39.99
450.2	50.894	-39.99
450.4	50.975	-39.47
450.6	51.057	-40.07
450.8	51.138	-39.7
451	51.22	-40.47
451.2	51.301	-39.83
451.42	51.402	999999
451.6	51.5	-40.28
451.8	51.609	-39.54
452	51.718	-39.82
452.18	51.816	-39.48
452.4	51.936	-38.34
452.6	52.045	-39.26
452.8	52.154	-38.99
453	52.264	999999
453.2	52.373	-39.51
453.4	52.482	-39.18
453.6	52.591	-38.94
453.8	52.7	-39.33
454	52.809	-39.7
454.2	52.918	-39.85
454.4	53.027	-40.33
454.6	53.136	-40.41
454.8	53.245	-40.48
455	53.354	-39.99
455.2	53.463	-39.39
455.42	53.583	-40.16
455.6	53.681	-40.04
455.8	53.79	-40.29
456	53.899	-41.04
456.2	54.008	-41.48
456.37	54.101	-41.97
456.6	54.226	-41.5
456.8	54.335	-41.72
457	54.449	-41.16
457.2	54.566	-39.88
457.4	54.682	-39.72
457.6	54.798	-39.63
457.8	54.915	-39.51
458	55.031	-40.17
458.2	55.147	-39.7
458.4	55.264	-39.92
458.6	55.38	999999
458.8	55.496	-39.95
459	55.613	-39.94
459.2	55.729	-39.58
459.38	55.834	-39.55
459.6	55.962	-39.92
459.8	56.078	-39.66
460	56.194	-39.67
460.2	56.311	-38.53
460.37	56.41	-40.36
460.6	56.543	-39.81
460.8	56.66	-39.39
461.2	56.892	-39.03
461.4	57.009	-39.27
461.6	57.125	-39.75
461.78	57.23	-39.79
462	57.358	-39.21
462.18	57.463	-39.11
462.4	57.59	-39.83
462.61	57.704	-40.07
462.8	57.807	-40.03
463	57.915	-40.59
463.2	58.024	-40.49
463.4	58.132	-40.08
463.6	58.241	-40.14
463.8	58.349	-40.83
464	58.457	-40.79
464.2	58.566	-40.36
464.5	58.728	-40.66
464.65	58.81	-40.9
464.8	58.891	-41.01
465	58.999	-41.34
465.22	59.118	-41.55
465.4	59.216	-41.33
465.6	59.324	-41.49
465.8	59.433	-41.19
466	59.541	-42.14
466.2	59.65	-42.47
466.43	59.774	-42.81
466.6	59.866	-42.39
466.8	59.975	-42.78
467	60.083	-42.82
467.2	60.192	-42.08
467.48	60.343	-42.49
467.6	60.408	-43
467.8	60.517	-42.3
468	60.624	-42.31
468.2	60.731	-41.38
468.43	60.853	-41.45
468.6	60.943	-42.47
468.8	61.05	-41.84
468.98	61.146	-42.03
469.18	61.252	-42.55
469.43	61.385	-42.71
469.6	61.475	-43.11
469.8	61.582	-43.05
470.01	61.693	-42.18
470.22	61.805	-42.43
470.47	61.938	-43.11
470.6	62.007	-42.31
470.8	62.114	-42.1
471	62.22	-41.9
471.23	62.342	-43.26
471.51	62.491	-40.77
471.6	62.539	-42.27
471.8	62.646	-43.07
472	62.752	-43.4
472.2	62.858	-43.48
472.4	62.965	-45.03
472.6	63.071	-42.9
472.8	63.177	-43.47
473	63.284	-42.44
473.2	63.39	-43.19
473.4	63.497	-43.81
473.6	63.608	-42.77
473.8	63.72	-43.43
474	63.833	-42.59
474.2	63.945	-43.22
474.4	64.058	-43.21
474.63	64.187	-42.71
474.8	64.283	-43.27
475.03	64.413	-42.93
475.2	64.508	-43.94
475.4	64.621	-43.55
475.6	64.734	-43.32
475.8	64.846	-44.1
476	64.959	-45.04
476.2	65.071	-44.45
476.4	65.184	-43.74
476.8	65.409	-43.51
477	65.522	-43.24
477.2	65.634	-45.03
477.4	65.747	-43.31
477.6	65.859	-43.07
477.9	66.028	-43.42
478	66.085	-44.21
478.2	66.197	-42.98
478.4	66.31	-43.76
478.6	66.422	-43.16
478.8	66.535	-42.79
479	66.649	-42.66
479.2	66.778	-43.37
479.4	66.907	-42.79
479.6	67.036	-43.87
479.8	67.164	-43.78
480	67.293	-43.7
480.2	67.422	-44.11
480.5	67.615	-43.57
480.6	67.679	-43.34
480.8	67.808	-43.85
481	67.937	-42.82
481.3	68.13	-42.06
481.5	68.259	-42.05
481.6	68.323	-42.35
481.8	68.452	-42.57
482	68.581	-41.79
482.22	68.722	-41.34
482.4	68.838	-41.28
482.64	68.993	-41.86
482.77	69.076	-41.1
482.97	69.205	-41.27
483.2	69.353	-41.33
483.4	69.482	-40.54
483.6	69.61	-41.3
483.8	69.739	-41.19
484	69.868	-40.89
484.35	70.093	-40.53
484.48	70.177	-40.67
484.6	70.265	-40.65
484.8	70.415	-41.01
485	70.565	-41.78
485.2	70.716	-41.35
485.4	70.866	-40.92
485.6	71.017	-42.07
485.8	71.167	-41.38
486	71.318	-40.99
486.2	71.468	-41.9
486.4	71.618	-41.43
486.6	71.769	-42.33
486.8	71.919	-41.96
487	72.07	-42.05
487.18	72.205	-43.04
487.4	72.37	-43.16
487.6	72.521	-42.43
487.8	72.671	-42.55
488	72.822	-41.85
488.18	72.957	-42.7
488.47	73.175	-41.86
488.55	73.235	-42.38
488.82	73.438	-41.75
489	73.574	-41.27
489.22	73.739	-41.69
489.4	73.874	-41.22
489.43	73.897	-41.15
489.6	74.025	-41.26
489.82	74.19	-41.34
490	74.326	-41.38
490.19	74.481	-40.49
490.39	74.646	-40.71
490.6	74.82	-40.62
490.8	74.986	-39.52
491.03	75.176	-40.99
491.2	75.317	-40.99
491.39	75.474	-40.46
491.6	75.648	-40.67
491.8	75.813	-40.5
492	75.979	-40.75
492.2	76.145	-41
492.39	76.302	-41.16
492.6	76.476	-40.91
492.8	76.641	-41.06
493	76.807	-42.09
493.2	76.972	-42.1
493.39	77.13	-43.02
493.6	77.303	-42.2
493.8	77.469	-41.86
494	77.635	-42.32
494.2	77.8	-41.84
494.4	77.966	-42.5
494.6	78.131	-42.5
494.8	78.297	-42.02
495	78.462	-41.02
495.2	78.628	-41.29
495.33	78.736	-41.49
495.6	78.962	-41.58
495.8	79.14	-42.03
496	79.318	-42.08
496.22	79.515	-41.53
496.43	79.702	-41.73
496.65	79.898	-41.23
496.8	80.032	-41.91
497	80.21	-40.74
497.23	80.415	-41.44
497.54	80.691	-40.82
497.65	80.789	-41.34
497.8	80.923	-41.14
497.98	81.083	-40.78
498.23	81.306	-40.51
498.4	81.458	-40.91
498.58	81.618	-40.55
498.83	81.841	-41.14
499	81.993	-40.49
499.29	82.251	-40.62
499.43	82.376	-40.28
499.6	82.527	-40.31
499.8	82.706	-40.11
499.99	82.875	-40.37
500.2	83.062	-40.12
500.4	83.241	-39.8
500.6	83.419	-40.12
500.8	83.597	-39.61
501	83.775	-39.52
501.28	84.04	-39.74
501.4	84.156	-39.61
501.6	84.35	-39.34
501.8	84.543	-39.08
502	84.737	-38.76
502.2	84.931	-39.45
502.4	85.124	-38.71
502.6	85.318	-38.47
502.8	85.512	-38.49
503	85.705	-38.66
503.2	85.899	-38.72
503.4	86.093	-38.91
503.63	86.315	-39.1
503.8	86.48	-39.42
504	86.673	-39.21
504.2	86.867	-39.41
504.42	87.08	-39.16
504.61	87.264	-39.43
504.8	87.448	-39.54
505	87.642	-39.58
505.2	87.835	-39.86
505.4	88.029	-40.06
505.6	88.222	-40.53
505.77	88.387	-39.89
506	88.61	-40
506.12	88.726	-40.34
506.65	89.244	-39.61
506.8	89.411	-40.3
507	89.632	-40.39
507.21	89.865	-40.83
507.38	90.053	-41.12
507.6	90.297	-40.97
507.79	90.508	-41.79
508.01	90.752	-41.75
508.2	90.962	999999
508.21	90.973	-41.56
508.71	91.527	-40.93
509.21	92.081	-40.2
510	92.957	-40.81
510.25	93.234	-40.2
510.4	93.4	-40.13
510.6	93.622	-39.88
510.84	93.888	-39.93
511	94.065	-40.1
511.2	94.287	-39.91
511.4	94.508	-39.56
511.6	94.73	-39.36
511.8	94.952	-39.75
512	95.173	-39.55
512.19	95.395	-39.16
512.4	95.674	-38.97
512.6	95.939	-38.78
512.8	96.205	-38.79
513	96.47	-39.17
513.2	96.736	-39.56
513.35	96.935	-38.68
513.6	97.267	-38.36
513.8	97.532	-38.45
514	97.798	-38.42
514.2	98.064	-38.98
514.4	98.329	-38.81
514.65	98.661	-39.23
514.8	98.86	-38.99
515	99.126	-39.04
515.2	99.391	-39.02
515.4	99.657	-38.69
515.63	99.962	-38.75
515.8	100.19	-39.29
516	100.45	-39.1
516.2	100.72	-39.46
516.4	100.98	-39.5
516.61	101.26	-39.74
516.8	101.52	-40
517	101.78	-39.81
517.22	102.07	-39.54
517.4	102.31	-39.95
517.6	102.58	-39.9
517.8	102.87	-39.23
518	103.17	-39.89
518.2	103.48	-39.81
518.4	103.78	-40.48
518.6	104.08	-41.08
518.81	104.4	-41.72
519	104.69	-41.27
519.21	105.01	-41.46
519.43	105.34	-41.35
519.58	105.57	-40.83
519.77	105.86	999999
520.28	106.64	-41.83
520.4	106.82	-40.77
520.6	107.12	-40.62
520.83	107.47	-40.83
521.02	107.76	-41.66
521.2	108.03	-41.33
521.4	108.34	-41.98
521.6	108.64	-42.53
521.82	108.97	-42.42
522	109.25	-43.13
522.28	109.67	-42.21
522.88	110.58	-42.84
523.28	111.29	-43.29
523.4	111.6	-42.77
523.6	112.12	-42.33
523.8	112.64	-42.29
524	113.16	-42.04
524.2	113.68	-41.62
524.4	114.21	-41.68
524.78	115.2	-40.82
525.28	116.5	-40.4
525.4	116.81	-40.52
525.6	117.33	-40.02
525.75	117.73	-39.54
525.9	118.12	-39.4
526.2	118.9	-38.35
526.28	119.11	-38.98
526.4	119.42	-38.78
526.6	119.94	-38.87
526.82	120.52	-38.39
526.98	120.93	-38.76
527.2	121.51	-38.81
527.4	122.03	-38.51
527.6	122.55	-38.52
527.8	123.07	-38.33
528	123.59	-38.07
528.2	124.11	-38.23
528.33	124.45	-38.2
528.83	125.98	-38.19
529.39	128.59	-38.17
529.63	129.71	-38.44
529.8	130.5	-37.92
530	131.43	-37.58
530.2	132.36	-36.8
530.37	133.15	-35.77
530.58	134.13	-36.15
530.8	135.15	-38.52
530.98	135.99	-41.47
531.4	137.95	-41.71
531.62	138.97	-41.16
531.8	139.81	-42.27
531.99	140.69	-43.1
532.2	141.67	-43.33
532.4	142.6	-42.83
532.6	143.53	-41.62
532.8	144.47	-40.33
533.03	145.54	-41.4
533.2	146.33	-42.07
533.42	147.35	-43
533.62	148.28	-42.07
533.82	149.21	-41.87
534	150.05	-42.53
534.2	150.98	-42.69
534.45	152.15	-41.81
534.6	152.85	-41.53
534.83	153.92	-40.93
535	154.71	-40.59
536.25	160.53	-39.07
536.4	161.23	-39.84
536.63	162.3	-39.86
536.81	163.14	-40.11
537.01	164.07	-40.39
537.23	165.1	-40.77
537.41	165.94	-41.15
537.6	166.82	-40.86
537.79	167.71	-40.37
538	168.68	-39.79
538.2	169.62	-39.13
538.39	170.5	-38.38
538.6	171.48	-38.01
538.8	172.41	-38.53
538.98	173.25	-40.25
539.2	174.27	-41.07
539.43	175.35	-42.04
539.6	176.14	-42.7
539.82	177.16	-40.79
539.99	177.95	-40.67
540.2	178.93	-39.29
540.38	179.77	-37.16
540.6	180.79	-39.4
540.8	181.72	-42.2
541	182.66	-43.08
541.3	184.05	-41.44
541.58	185.36	-40.54
541.81	186.43	-39.99
542	187.31	-38.57
542.18	188.15	-38.13
542.75	190.81	-40.36
542.82	191.13	-41.37
543.18	192.81	-40.41
543.6	194.76	-40.81
543.8	195.69	-39.56
544	196.63	-39.85
544.14	197.28	-38.82
544.2	197.56	-39.16
544.58	199.33	-40.7
544.78	200.26	-38.81
545	201.28	-40.72
545.2	202.21	-40.66
545.38	203.05	-40.9
545.6	204.08	-39.07
545.8	205.01	-37.62
546	205.94	-38.47
546.2	206.87	-39.5
546.39	207.76	-40.38
546.6	208.73	-39.13
546.8	209.66	999999
547	210.6	-40.96
547.2	211.53	999999
550.22	225.59	-39.41
550.4	226.43	-39.12
550.58	227.27	-39.55
550.83	228.43	-39.61
550.99	229.18	-39.64
551.2	230.16	999999
551.22	999999	-38.79
553.12	999999	-37.04
553.62	999999	-36.63
554.2	999999	999999
